ALV-7004 CGS-8F Data, Single Run Data
Date :	"11.05.2021"
Time :	"09:21:57"
Samplename : 	"092 2021 Toluol"
SampMemo(0) : 	"Toluol-Messung "
SampMemo(1) : 	""
SampMemo(2) : 	""
SampMemo(3) : 	""
SampMemo(4) : 	""
SampMemo(5) : 	""
SampMemo(6) : 	""
SampMemo(7) : 	""
SampMemo(8) : 	""
SampMemo(9) : 	""
Temperature [K] :	     292.95108
Viscosity [cp]  :	       1.00665
Refractive Index:	       1.33200
Wavelength [nm] :	     632.80000
Angle(1)[°]     :	      26.00000
Angle(2)[°]     :	      42.00000
Angle(3)[°]     :	      58.00000
Angle(4)[°]     :	      74.00000
Angle(5)[°]     :	      90.00000
Angle(6)[°]     :	     106.00000
Angle(7)[°]     :	     122.00000
Angle(8)[°]     :	     138.00000
Duration [s]    :	          30.0
Runs            :	         1
Mode            :	"8 x AUTO, 100 ns STC"
MeanCR1 [kHz]   :	      32.30945
MeanCR2 [kHz]   :	      24.36891
MeanCR3 [kHz]   :	      22.31208
MeanCR4 [kHz]   :	      18.51959
MeanCR5 [kHz]   :	      18.62893
MeanCR6 [kHz]   :	      24.07384
MeanCR7 [kHz]   :	      29.49318
MeanCR8 [kHz]   :	      43.91340
Atten[1]        :	       1.00000
Atten[2]        :	       1.00000
Atten[3]        :	       1.00000
RelSens[1]      :	       1.00000
RelSens[2]      :	       1.00000
RelSens[3]      :	       1.00000
RelSens[4]      :	       1.00000
RelSens[5]      :	       1.00000
RelSens[6]      :	       1.00000
RelSens[7]      :	       1.00000
RelSens[8]      :	       1.00000
DC[1][kHz]      :	       0.00000
DC[2][kHz]      :	       0.00000
DC[3][kHz]      :	       0.00000
DC[4][kHz]      :	       0.00000
DC[5][kHz]      :	       0.00000
DC[6][kHz]      :	       0.00000
DC[7][kHz]      :	       0.00000
DC[8][kHz]      :	       0.00000

"Correlation"
  1.00000E-004	 -1.20064E-001	  1.20808E-001	 -9.19305E-002	 -7.09659E-004	  3.25139E-002	  2.59082E-001	  2.56812E-001	 -7.09396E-002
  2.00000E-004	  4.54183E-002	  9.85737E-002	  6.19796E-002	  7.83207E-002	  1.09320E-001	  8.67727E-002	  1.25137E-001	  5.29990E-002
  3.00000E-004	 -7.45138E-003	  5.09429E-002	  3.11975E-002	  3.96463E-002	  6.38685E-002	  2.66569E-002	  7.31965E-002	  3.08785E-002
  4.00000E-004	 -1.46275E-002	  6.56059E-002	 -1.28179E-002	  1.94683E-002	  5.19586E-002	  2.09635E-002	  7.20734E-002	  3.62289E-002
  5.00000E-004	  9.35127E-004	  5.17096E-002	  4.45748E-002	  5.59808E-002	  4.61252E-002	  2.71593E-002	  6.57564E-002	  1.33897E-002
  6.00000E-004	  3.87473E-003	  4.28927E-002	 -2.30306E-002	  2.23509E-002	  3.15417E-002	  3.21829E-002	  2.16774E-002	  1.69034E-002
  7.00000E-004	  8.02476E-003	  6.09145E-003	  2.67384E-002	 -3.59224E-003	  1.84165E-002	 -2.98233E-003	  3.37500E-002	  9.39683E-003
  8.00000E-004	  4.65283E-003	  3.12006E-002	  1.13469E-003	  1.85074E-002	 -1.99868E-002	 -4.65689E-003	  4.21727E-002	  1.16328E-002
  9.00000E-004	  2.14259E-002	  4.74972E-003	  7.46370E-003	 -1.51225E-002	  1.11265E-002	  2.68244E-002	 -8.36371E-003	  1.22717E-002
  1.00000E-003	  2.88613E-002	  1.43334E-002	  8.03906E-003	  4.92548E-002	 -3.16519E-002	  1.37144E-003	  2.42042E-002	 -1.86077E-004
  1.10000E-003	  1.91779E-002	  1.20333E-002	  1.13469E-003	  4.92548E-002	  2.37656E-002	  1.74470E-002	 -2.07170E-002	  2.82431E-002
  1.20000E-003	  1.13966E-002	 -1.21175E-002	 -2.99350E-002	  2.13900E-002	 -8.31823E-003	 -1.60437E-002	  1.07278E-002	 -1.26438E-002
  1.30000E-003	 -6.41391E-003	 -2.70680E-002	  4.65885E-002	 -7.43570E-003	 -2.29018E-002	  2.07960E-002	  5.56491E-002	 -2.28656E-002
  1.40000E-003	  9.32162E-003	  1.29960E-003	 -2.59075E-002	 -3.59227E-003	 -5.40152E-003	  1.81168E-002	  5.45260E-002	 -1.29633E-002
  1.50000E-003	  2.93801E-002	 -1.36509E-002	 -1.44002E-002	  3.48420E-002	  4.32085E-003	  2.81640E-002	 -1.45404E-002	  8.75795E-003
  1.60000E-003	  1.57195E-002	 -7.32461E-003	  4.58682E-003	  5.64612E-002	  1.64756E-002	 -4.65545E-003	 -5.02542E-004	  7.48017E-003
  1.80000E-003	  8.71635E-003	 -4.44951E-003	  2.01217E-002	  1.27422E-002	  2.61980E-002	 -2.54197E-002	  2.92578E-002	  7.00103E-003
  2.00000E-003	 -8.14314E-003	 -8.47465E-003	  2.84645E-002	 -3.57810E-002	  2.86286E-002	  1.04154E-002	 -2.74860E-003	  2.12156E-002
  2.20000E-003	  1.47685E-002	  1.58678E-002	  2.61630E-002	 -4.05853E-002	 -2.48307E-003	  3.55334E-002	 -1.56635E-002	 -7.05386E-003
  2.40000E-003	  2.16860E-002	 -1.38415E-002	 -8.07120E-003	 -8.39660E-003	  1.79339E-002	 -2.37452E-002	  2.02735E-002	 -5.13729E-003
  2.60000E-003	  1.34724E-002	 -2.34111E-003	  6.88828E-003	  7.31527E-004	  3.64065E-002	  2.04269E-003	 -4.99467E-003	  6.12443E-004
  2.80000E-003	  9.06295E-003	 -3.29947E-003	 -1.92908E-002	  9.85966E-003	  3.00869E-002	 -2.10659E-002	  9.01246E-004	  9.71618E-003
  3.00000E-003	 -1.25518E-002	  9.54263E-003	 -1.69894E-002	 -1.70443E-002	  1.55034E-002	  1.37645E-002	 -1.76288E-002	 -1.86130E-004
  3.20000E-003	 -7.49405E-003	 -1.35844E-004	  9.47731E-003	  1.29823E-002	  5.53961E-003	  2.54645E-003	  7.21819E-003	 -1.86237E-004
  3.60000E-003	 -7.07021E-004	  2.16424E-003	  1.27637E-004	  3.61399E-003	 -3.21056E-003	  5.05675E-003	 -1.66462E-002	 -1.22438E-003
  4.00000E-003	 -1.22577E-003	 -5.98188E-003	 -4.90680E-003	 -3.19377E-002	  2.13385E-002	  1.29271E-002	  4.41061E-003	 -4.01939E-003
  4.40000E-003	 -1.09609E-003	  8.39362E-003	 -3.18071E-003	  1.93249E-003	  3.90819E-002	 -1.57075E-002	 -1.76606E-003	 -2.02296E-003
  4.80000E-003	  4.13468E-003	  7.05077E-003	 -1.65579E-002	  1.69228E-003	 -1.07472E-002	  8.23837E-003	 -8.78500E-003	  5.72321E-003
  5.20000E-003	 -4.51122E-003	  4.07984E-003	  6.60049E-003	 -9.59778E-003	  2.01214E-002	 -1.26933E-002	  3.28758E-003	  1.49068E-002
  5.60000E-003	  2.75134E-003	 -6.46219E-003	 -2.31766E-003	  1.00998E-002	 -2.94628E-002	  1.03787E-003	  1.17103E-002	  7.32035E-003
  6.00000E-003	  1.74926E-002	  2.06727E-003	 -1.16673E-002	 -2.18487E-002	 -1.12333E-002	 -2.47866E-003	 -5.83705E-003	  1.31499E-002
  6.40000E-003	  5.19359E-003	  3.02655E-003	  7.24756E-003	 -1.32012E-002	 -1.14476E-003	  1.77845E-002	 -1.65762E-002	  9.15685E-003
  7.20000E-003	 -5.00857E-003	  2.73904E-003	 -3.54053E-003	  9.49902E-003	 -1.38782E-003	  5.05804E-003	  9.95536E-003	  1.19119E-002
  8.00000E-003	 -5.55931E-004	 -1.19026E-003	 -5.91782E-004	  4.09420E-003	  4.35131E-004	  1.03915E-003	  1.81675E-002	  5.92263E-003
  8.80000E-003	 -6.17576E-003	 -6.60503E-003	 -9.58185E-003	 -1.07991E-002	 -5.76290E-003	 -1.34456E-002	 -2.88930E-003	  4.68485E-003
  9.60000E-003	 -1.02021E-004	 -2.01180E-002	  1.42199E-003	  3.25345E-003	  8.94223E-003	  5.64413E-003	  7.35835E-003	  8.15864E-003
  1.04000E-002	 -1.16114E-003	 -1.14234E-003	  3.14809E-003	 -2.29649E-004	 -8.31503E-003	  7.31716E-003	  7.21797E-003	 -1.30445E-003
  1.12000E-002	 -5.87918E-005	 -3.29979E-003	  4.44266E-003	  1.98282E-002	  1.23433E-002	  1.54001E-003	  5.74399E-003	 -1.06488E-003
  1.20000E-002	 -3.21454E-003	  2.54624E-003	  6.81604E-003	  1.04599E-002	  2.01322E-003	 -4.06968E-003	 -1.15226E-002	 -2.78181E-003
  1.28000E-002	 -4.35979E-003	  8.27318E-003	  8.21806E-003	 -6.50449E-004	  1.02179E-002	  1.48118E-002	 -5.03289E-004	 -1.28491E-003
  1.44000E-002	  4.05915E-003	  1.87609E-003	 -6.16605E-003	 -1.26011E-002	  9.97481E-003	 -8.84105E-003	 -1.41575E-003	  5.46303E-003
  1.60000E-002	  2.66522E-004	 -1.47820E-003	  7.13925E-003	  8.05730E-003	  2.52409E-004	  4.76457E-003	 -2.57388E-003	 -3.62074E-003
  1.76000E-002	  8.60928E-004	  2.37923E-003	 -6.34585E-003	  3.01281E-003	 -3.39349E-003	  4.01103E-003	  7.91944E-003	 -4.71269E-005
  1.92000E-002	  5.78909E-003	 -1.84402E-004	  4.26243E-003	 -8.03702E-003	  1.46771E-003	  5.35066E-003	 -5.83768E-003	  8.11339E-004
  2.08000E-002	  4.58947E-003	 -4.64081E-003	 -5.41088E-003	 -3.71318E-003	 -1.13537E-002	  7.58615E-005	 -6.08334E-003	  5.44306E-003
  2.24000E-002	 -3.61333E-003	  4.51159E-003	 -4.90744E-003	  5.05463E-003	  1.50183E-002	 -2.72899E-003	 -1.59122E-003	  9.91018E-004
  2.40000E-002	  1.32565E-003	 -2.94083E-003	 -2.89367E-003	 -6.35553E-003	 -6.67659E-003	  1.45736E-003	 -1.69651E-003	 -3.10167E-003
  2.56000E-002	  6.95696E-003	 -3.97940E-003	  8.84650E-003	  7.60604E-003	  5.26466E-003	  5.24664E-003	 -8.13723E-003	 -2.08434E-003
  2.88000E-002	  2.31595E-003	  2.92085E-003	  4.35147E-003	  7.63607E-003	 -5.67303E-003	 -5.47041E-003	  5.77780E-003	 -1.50434E-003
  3.20000E-002	  8.46902E-004	 -8.60276E-005	 -4.09919E-003	  1.09025E-003	 -3.02975E-003	 -4.82152E-003	  4.58458E-003	 -2.19311E-003
  3.52000E-002	  3.68925E-003	 -2.58977E-003	  7.71375E-003	 -3.20357E-003	 -2.34564E-004	 -1.84922E-003	  1.91739E-003	  3.48674E-003
  3.84000E-002	  4.67883E-004	  2.08228E-003	  2.34024E-004	  4.60337E-003	  4.33850E-004	  1.83477E-003	 -1.03056E-003	 -1.00524E-003
  4.16000E-002	 -4.18323E-004	  3.81177E-004	  3.16478E-003	  5.80444E-003	 -7.81449E-004	  3.76049E-003	  9.04299E-003	  9.28017E-005
  4.48000E-002	  1.51620E-003	 -7.01024E-003	 -2.98442E-003	 -1.70875E-004	  3.47210E-003	 -1.07474E-003	  8.49902E-003	 -1.76717E-004
  4.80000E-002	  3.39128E-003	  1.32757E-003	 -5.05213E-003	 -3.14352E-003	 -2.33095E-003	 -7.18904E-004	  1.12913E-003	  1.90956E-003
  5.12000E-002	  1.06092E-003	  1.52918E-003	 -3.29040E-003	  2.15807E-003	  2.80558E-003	  2.13209E-003	 -1.53100E-003	 -3.12403E-003
  5.76000E-002	 -1.17005E-003	  2.58339E-003	  3.17345E-003	  2.48837E-003	 -4.31912E-003	  3.18915E-003	 -1.67138E-003	  5.39576E-003
  6.40000E-002	  1.77691E-003	 -3.78006E-003	  2.93971E-003	 -2.14043E-004	 -1.52393E-003	 -2.19033E-003	  7.25144E-003	 -8.53085E-004
  7.04000E-002	  6.18576E-004	  4.13848E-003	  6.92194E-004	  3.85458E-003	 -2.38803E-003	  5.79516E-003	  3.18046E-003	 -2.19216E-004
  7.68000E-002	 -2.89248E-004	 -9.77955E-004	  2.23987E-003	  2.30820E-003	  2.86815E-003	 -6.30343E-003	  1.14634E-003	 -5.84690E-005
  8.32000E-002	  1.29674E-003	 -1.63341E-004	 -2.10233E-003	 -1.23495E-003	  2.44460E-003	  8.55251E-004	 -4.41697E-004	  1.95294E-003
  8.96000E-002	  5.67240E-004	 -6.60495E-004	 -2.30910E-003	  4.62026E-003	  3.33008E-004	 -3.52997E-003	  1.18143E-003	 -4.37973E-003
  9.60000E-002	  9.91432E-004	  1.29331E-003	 -1.82364E-003	  5.22080E-003	  2.08001E-003	  5.56491E-003	 -2.36313E-003	 -2.10379E-003
  1.02400E-001	 -1.11727E-004	 -1.87905E-003	  5.50091E-003	 -2.63854E-003	 -3.14632E-004	 -1.53067E-003	  1.05979E-004	  9.41069E-004
  1.15200E-001	 -6.08869E-004	 -2.80899E-004	  2.87167E-005	 -3.33985E-004	  7.39368E-004	  1.28842E-003	 -2.88886E-003	  4.28447E-004
  1.28000E-001	 -8.35825E-004	 -1.21944E-003	  2.33329E-003	 -3.06642E-003	 -1.69305E-003	  3.62404E-005	 -1.36828E-003	 -5.99722E-004
  1.40800E-001	 -2.86588E-004	 -1.75739E-003	  6.24140E-006	 -9.87067E-004	 -4.98729E-004	  3.13588E-004	  1.65864E-003	  6.74411E-007
  1.53600E-001	  7.15803E-004	 -1.27521E-003	  1.94500E-003	  8.76051E-003	  2.20714E-003	 -2.05844E-003	 -3.37374E-004	 -2.98792E-004
  1.66400E-001	 -8.93915E-004	 -3.40063E-004	  1.56431E-003	 -2.02656E-003	  3.52879E-003	  1.41625E-003	 -1.04804E-003	  3.42565E-004
  1.79200E-001	 -1.69907E-003	  4.82404E-004	 -4.31974E-003	  2.86028E-003	  4.37342E-004	 -7.43472E-004	 -3.85630E-004	  8.79109E-004
  1.92000E-001	  1.16836E-003	 -2.18905E-003	 -1.15971E-003	  9.31063E-004	 -6.03269E-004	 -1.98892E-003	  1.34718E-003	  1.11120E-003
  2.04800E-001	  4.00861E-005	 -2.78317E-004	 -1.62917E-003	  1.37053E-003	 -1.01766E-003	 -1.72851E-003	 -4.20995E-004	  3.66022E-004
  2.30400E-001	 -2.38207E-004	  2.72380E-004	  3.37957E-004	  4.32200E-004	 -2.00312E-003	 -5.16698E-004	  8.04311E-004	 -9.21290E-005
  2.56000E-001	  1.72352E-003	  2.25914E-003	  2.84016E-004	  6.68660E-004	  3.81963E-004	 -1.08074E-003	  8.64358E-004	 -2.07897E-005
  2.81600E-001	 -6.52611E-004	 -1.92663E-003	 -1.41877E-003	  2.68045E-003	  2.49179E-003	  1.88899E-003	  7.24802E-004	 -1.06286E-004
  3.07200E-001	  7.72547E-004	  1.97276E-003	 -1.33474E-003	  1.62951E-003	  3.21197E-004	 -1.38313E-003	  4.00174E-004	 -1.13446E-003
  3.32800E-001	 -1.05722E-003	  5.50542E-004	  1.03867E-003	  1.31423E-003	 -2.71312E-003	 -1.38873E-003	  1.03983E-003	 -8.56205E-004
  3.58400E-001	 -1.20033E-003	 -2.17221E-003	  1.98852E-003	  2.26203E-003	 -9.87080E-004	  2.01756E-003	 -6.28004E-004	 -7.69891E-004
  3.84000E-001	 -4.33083E-004	  3.59599E-004	  7.42518E-004	  3.10303E-004	 -9.07770E-005	 -3.19971E-003	 -8.46807E-004	  5.43595E-004
  4.09600E-001	 -2.85582E-004	 -3.37119E-004	 -1.54893E-003	  4.08036E-004	 -1.30897E-003	  2.34219E-004	 -8.92318E-004	 -8.10330E-004
  4.60800E-001	 -1.46263E-004	 -7.58263E-004	 -7.93139E-004	 -3.74542E-004	  1.86427E-003	  2.57899E-003	  8.69583E-004	  4.81759E-004
  5.12000E-001	  4.06363E-004	  1.59842E-003	 -8.97652E-004	  2.85523E-003	  1.33264E-003	  3.86350E-004	  5.65789E-004	 -1.45191E-003
  5.63200E-001	 -9.78821E-005	  5.27354E-004	 -8.99900E-004	 -7.66857E-004	  1.18121E-003	 -2.50247E-003	 -6.37877E-004	  7.52100E-004
  6.14400E-001	  7.78890E-004	 -7.29416E-004	 -9.30762E-004	  2.27788E-004	 -5.39375E-004	 -5.01959E-004	  7.56893E-004	  2.46532E-003
  6.65600E-001	 -8.91571E-004	  1.59355E-004	  1.04063E-003	  6.35029E-004	  1.73941E-003	  1.41091E-003	  1.84944E-004	 -1.31010E-003
  7.16800E-001	  1.28993E-004	 -1.06110E-003	 -5.72534E-004	  1.36694E-003	 -4.55918E-004	 -3.50015E-004	  2.61558E-003	 -1.25791E-003
  7.68000E-001	  8.27227E-005	  1.98274E-004	  1.31907E-003	  1.41556E-003	  1.74141E-003	  2.24874E-004	  1.18242E-003	  3.92520E-004
  8.19200E-001	 -5.19489E-004	 -1.26002E-004	 -6.89652E-004	  6.99988E-004	  1.23585E-003	 -3.59427E-004	  7.35526E-004	  1.34540E-003
  9.21600E-001	  2.62912E-004	 -4.24762E-004	 -6.03148E-005	 -7.46036E-004	 -6.02440E-004	 -3.02017E-005	  5.96557E-005	  4.75013E-004
  1.02400E+000	 -5.90412E-004	  7.21953E-004	  1.76626E-004	  5.04126E-004	 -1.01054E-003	 -4.15967E-004	 -4.01801E-004	  2.32972E-005
  1.12640E+000	  2.51262E-004	  4.24324E-004	  1.28331E-003	 -9.85992E-004	  1.70510E-003	 -1.09526E-003	 -3.76033E-004	 -1.48808E-004
  1.22880E+000	 -1.65859E-004	  5.71104E-004	  1.61832E-004	 -5.63642E-004	  9.29099E-005	  1.88254E-003	  6.26947E-004	  6.98666E-004
  1.33120E+000	 -4.61052E-004	 -4.49789E-004	  1.17332E-003	  3.46482E-004	 -4.52967E-004	  7.66117E-005	  6.37097E-004	  6.65092E-004
  1.43360E+000	  1.96507E-005	 -6.00596E-005	  8.14834E-004	  9.96060E-005	  1.49099E-003	 -1.03788E-003	 -1.72856E-004	 -5.40532E-004
  1.53600E+000	  2.75040E-005	 -8.60477E-004	 -2.78016E-004	 -1.23014E-003	 -3.60665E-004	 -7.20617E-004	  1.00533E-003	  5.37243E-004
  1.63840E+000	  9.92860E-005	 -2.37691E-004	  1.81768E-004	 -2.55711E-004	  3.90516E-004	  2.60243E-004	  9.85450E-004	  1.94441E-004
  1.84320E+000	  1.69505E-005	 -7.61480E-004	 -1.47817E-004	  5.66853E-004	  6.82051E-004	 -9.33669E-004	  3.65178E-004	  4.10598E-004
  2.04800E+000	  4.55652E-004	  2.31485E-004	 -5.83310E-004	  1.17070E-004	 -3.94925E-004	 -7.08975E-004	 -4.88993E-004	  3.49862E-004
  2.25280E+000	 -3.03016E-004	 -6.69298E-005	  4.43657E-004	 -3.13601E-004	  3.85474E-004	 -7.16541E-004	  5.13521E-004	 -6.61506E-004
  2.45760E+000	 -7.53618E-006	  2.73443E-004	  2.13498E-005	  1.18267E-004	  8.11578E-004	  9.07175E-004	  1.69107E-004	 -3.32370E-004
  2.66240E+000	 -3.48027E-004	 -1.06603E-004	  6.14228E-004	 -1.71673E-005	  4.11603E-004	  2.61366E-004	  6.06485E-004	 -5.62960E-004
  2.86720E+000	  3.47728E-004	 -8.22489E-004	  6.27415E-004	  1.79440E-004	  5.55483E-004	  1.29214E-004	  3.14438E-004	  2.02970E-004
  3.07200E+000	  1.93865E-004	  3.88647E-005	 -1.38767E-004	 -1.72274E-004	 -5.15003E-005	 -1.11540E-004	  1.86106E-004	  4.00814E-004
  3.27680E+000	  3.80763E-004	  1.14680E-004	 -2.18063E-005	 -6.05841E-005	 -8.66724E-004	  3.04552E-004	  3.41797E-004	  2.37077E-004
  3.68640E+000	 -2.51258E-004	 -5.27114E-004	 -5.88626E-004	  1.38504E-004	 -6.60725E-004	 -3.26804E-004	  1.25128E-004	  2.02320E-004
  4.09600E+000	 -1.44829E-004	  6.01953E-004	 -9.12014E-005	 -6.79875E-004	  5.86266E-004	  7.39632E-005	 -7.57701E-004	  4.09223E-004
  4.50560E+000	 -2.90771E-005	  1.91478E-004	 -4.37833E-004	 -4.52018E-004	 -7.13351E-005	 -1.01961E-004	  5.45565E-004	 -2.06594E-005
  4.91520E+000	 -3.96688E-004	  1.94957E-004	 -4.73383E-004	 -8.06416E-004	  1.73425E-004	 -2.28530E-005	  5.60108E-004	 -1.48683E-005
  5.32480E+000	 -9.23305E-005	  2.11122E-004	  7.65008E-004	 -3.73815E-004	 -7.68874E-004	 -9.37796E-004	 -3.40707E-005	 -2.30621E-004
  5.73440E+000	  1.77095E-004	 -9.62773E-005	  3.80178E-004	  7.27054E-004	  1.83635E-004	 -4.53021E-004	  4.14888E-004	  4.90169E-004
  6.14400E+000	  8.24607E-005	  5.22445E-004	 -8.13518E-004	  4.42790E-004	 -4.83610E-004	 -4.48680E-004	 -9.18015E-005	  3.08018E-004
  6.55360E+000	  1.57465E-005	  2.39037E-004	  7.54025E-005	  3.95191E-004	 -1.24487E-004	 -3.90861E-005	  5.96823E-005	 -1.05453E-004
  7.37280E+000	 -3.42059E-005	  5.59718E-005	 -1.98988E-004	  6.01953E-004	  1.35746E-004	  1.02751E-004	 -2.15143E-004	 -7.29656E-005
  8.19200E+000	  1.52388E-004	 -2.50960E-004	 -2.84126E-004	 -4.13631E-004	 -1.66626E-004	  4.97326E-004	  7.20964E-005	  2.11979E-004
  9.01120E+000	 -1.15851E-004	 -3.98634E-005	  6.98540E-004	 -1.43042E-005	 -5.60425E-005	 -1.96572E-004	 -1.91955E-004	  8.74499E-005
  9.83040E+000	  7.65325E-005	  1.08417E-004	 -1.41707E-004	  4.11008E-005	  9.63049E-006	  2.04326E-004	 -9.84063E-005	 -9.64453E-005
  1.06496E+001	 -1.21847E-004	 -1.16144E-004	 -2.02264E-004	 -2.72607E-004	  5.08519E-004	 -1.39179E-005	 -4.12129E-004	 -1.44297E-004
  1.14688E+001	  1.18433E-004	 -2.34049E-004	 -2.01924E-004	 -2.58760E-004	 -2.67925E-004	 -2.41773E-004	 -5.18415E-005	 -2.79170E-004
  1.22880E+001	  1.10030E-004	 -2.01476E-004	  2.10020E-005	  1.22669E-004	  3.57123E-004	 -1.05989E-004	  6.93754E-004	  1.12292E-004
  1.31072E+001	 -9.84621E-005	 -1.52181E-006	  1.81769E-004	 -8.41661E-005	 -8.82718E-005	  5.35424E-005	  5.16756E-004	  1.49679E-005
  1.47456E+001	  6.78764E-005	 -5.14462E-005	  1.42312E-004	  1.61862E-004	  9.17763E-005	  1.33668E-004	 -7.02288E-005	 -2.08609E-004
  1.63840E+001	 -7.38798E-005	  3.13839E-005	  2.94574E-004	  1.00598E-004	 -4.78429E-005	  3.43024E-004	  9.18733E-005	  1.97134E-004
  1.80224E+001	 -6.74258E-005	  1.26317E-004	 -3.16316E-004	  4.26374E-004	 -1.81522E-004	  8.31313E-005	 -1.13353E-004	 -7.23623E-005
  1.96608E+001	  9.55226E-005	 -1.07589E-004	 -1.75211E-004	  2.56824E-005	  1.36541E-004	 -7.41552E-005	  3.88969E-005	  5.90422E-005
  2.12992E+001	 -9.64317E-005	 -1.17753E-004	 -2.47649E-004	  1.27676E-004	  7.87555E-005	 -2.10793E-004	  1.55503E-004	  2.09309E-004
  2.29376E+001	 -3.73113E-005	  2.44919E-004	  4.94582E-005	 -1.43293E-004	 -5.95837E-004	 -1.20278E-004	  1.10740E-004	 -7.24537E-005
  2.45760E+001	  1.63408E-005	 -1.44843E-004	  1.62115E-004	  5.56748E-005	  1.81374E-004	  5.07380E-005	  7.96573E-005	 -7.80667E-005
  2.62144E+001	 -7.09250E-006	 -8.38850E-005	 -1.94824E-004	  2.18393E-004	  2.92823E-004	 -6.64276E-006	  8.83902E-005	 -9.51003E-005
  2.94912E+001	  5.38637E-005	  1.64531E-004	 -4.00444E-005	  5.07129E-005	  1.46724E-004	 -5.36333E-005	 -9.78230E-005	 -8.75450E-006
  3.27680E+001	  9.06211E-005	  4.72935E-005	 -1.76381E-005	  1.15127E-004	 -6.66226E-005	  8.87882E-005	  1.11750E-004	  4.85682E-005
  3.60448E+001	  3.27978E-005	 -3.69161E-005	  3.04888E-005	 -8.92022E-006	  2.27287E-004	 -2.20146E-004	  1.52047E-004	 -1.45461E-004
  3.93216E+001	 -5.84263E-006	 -1.85323E-004	 -1.39735E-005	  2.18701E-004	 -1.69988E-005	 -1.62172E-004	 -4.11092E-005	  8.05132E-005
  4.25984E+001	  4.62514E-005	  1.18072E-004	  2.20370E-004	 -1.34205E-004	  2.67951E-004	  4.60516E-005	  1.61901E-004	 -8.59200E-005
  4.58752E+001	  2.87724E-005	 -1.44830E-004	  1.93173E-004	  6.96997E-005	  3.50226E-004	 -2.48656E-004	  1.58989E-004	 -5.32264E-005
  4.91520E+001	 -7.83255E-005	  1.70601E-005	  6.41966E-005	 -9.82778E-005	 -7.68481E-005	  1.82024E-004	  2.73263E-004	  2.04367E-004
  5.24288E+001	 -4.14173E-005	  6.39768E-005	 -2.59251E-004	 -1.79235E-004	  2.09444E-004	 -7.08540E-005	  8.86543E-005	  5.62944E-005
  5.89824E+001	 -2.91973E-005	 -1.05335E-004	 -4.67282E-005	 -2.56509E-005	 -1.08965E-004	  4.90351E-005	  9.23809E-005	  7.38329E-006
  6.55360E+001	 -3.96117E-006	 -4.28705E-005	 -5.00161E-005	  1.69578E-004	 -1.88929E-004	 -2.82189E-004	 -1.46144E-004	 -5.72476E-005
  7.20896E+001	  1.26552E-004	 -2.05476E-004	  6.66721E-005	 -2.20647E-004	 -7.12681E-005	  1.25553E-004	 -6.29259E-005	  1.16767E-006
  7.86432E+001	  7.93012E-005	  8.01219E-005	  1.03530E-004	 -2.82565E-004	  5.96903E-005	  3.41970E-005	 -1.07050E-004	  3.64287E-005
  8.51968E+001	  6.92257E-005	 -8.26251E-005	  2.21701E-005	  3.28981E-005	  2.68551E-004	 -3.56428E-005	 -2.20047E-006	  1.16167E-005
  9.17504E+001	 -5.66915E-005	  1.45153E-004	  1.23754E-004	  4.37454E-005	 -8.47341E-005	  1.44700E-004	  5.08778E-005	  1.10220E-005
  9.83040E+001	 -4.58579E-005	 -4.56003E-005	 -7.11447E-005	 -5.34458E-006	  1.41481E-004	 -2.87075E-005	  5.44880E-005	 -4.54228E-006
  1.04858E+002	 -5.07399E-005	  8.27474E-006	  4.91098E-006	 -2.41122E-005	  1.32327E-004	 -6.08010E-005	  7.99267E-005	  4.32003E-005
  1.17965E+002	 -5.81973E-005	  4.96830E-005	  6.22232E-006	  3.02201E-005	  8.23111E-005	  1.15335E-004	 -5.38212E-005	  2.73870E-005
  1.31072E+002	 -8.92251E-005	  5.80973E-005	  2.98000E-005	  2.83050E-005	  1.32957E-004	  5.86588E-006	  7.30734E-007	 -5.58521E-005
  1.44179E+002	 -6.46649E-005	  6.68041E-005	  4.81326E-005	 -1.30690E-004	  1.32260E-004	 -8.71792E-006	  8.60127E-005	 -4.27366E-005
  1.57286E+002	  8.15325E-005	 -4.20885E-005	  6.91310E-005	 -1.70858E-005	 -1.03818E-006	  7.66097E-005	  1.22487E-004	 -8.35113E-006
  1.70394E+002	  4.94891E-006	  6.00355E-005	 -3.34515E-005	 -1.31078E-004	 -5.54828E-005	  1.48994E-005	 -3.40597E-005	  6.25375E-005
  1.83501E+002	  9.28328E-006	 -6.33043E-005	 -3.74723E-005	 -5.81395E-005	 -1.01204E-004	  9.24565E-005	  2.13509E-005	 -7.03799E-005
  1.96608E+002	  5.74804E-006	 -6.04788E-005	 -4.32073E-005	  6.75499E-005	 -7.54008E-005	 -4.94061E-006	 -3.27229E-005	  5.79429E-005
  2.09715E+002	  1.12708E-005	 -1.56422E-005	 -2.67086E-005	  7.73780E-005	  6.13240E-005	 -4.10108E-005	 -3.27864E-005	  1.58393E-005
  2.35930E+002	  8.72081E-006	 -1.77288E-005	  3.83985E-005	  3.46750E-005	  5.23588E-005	  6.34614E-005	  6.72383E-005	  2.18725E-005
  2.62144E+002	 -2.25862E-005	  2.83745E-005	  6.11304E-006	 -1.71385E-005	 -2.59600E-005	  9.18691E-006	  1.60587E-005	 -2.09363E-005
  2.88358E+002	 -3.02145E-006	 -2.14062E-005	 -1.92327E-005	 -8.70755E-005	  7.44578E-005	 -2.84748E-005	  1.92242E-004	  9.27005E-006
  3.14573E+002	 -2.78871E-005	  4.91798E-006	 -5.19161E-005	 -2.84513E-005	 -4.00434E-005	 -3.47194E-005	  8.85829E-005	 -1.02674E-004
  3.40787E+002	 -2.47682E-005	 -3.32283E-005	  7.31243E-005	 -1.48188E-005	  1.20374E-004	  2.16627E-005	 -4.44367E-005	 -1.82157E-005
  3.67002E+002	  1.56839E-005	  5.48525E-005	 -1.10760E-004	 -6.88184E-006	 -7.27114E-006	  7.94919E-005	  1.63526E-006	  5.37174E-006
  3.93216E+002	  2.71973E-005	 -6.69128E-005	  3.32958E-005	 -2.53278E-005	 -1.77856E-005	 -3.18199E-006	 -1.23196E-004	 -2.93201E-005
  4.19430E+002	 -2.48397E-006	  2.07618E-005	  1.03344E-005	 -6.78262E-005	  4.57158E-006	 -1.04337E-005	 -3.29561E-005	  1.34887E-005
  4.71859E+002	  6.08134E-007	 -3.36531E-005	  3.94002E-005	  5.92222E-005	 -2.55330E-006	  7.05097E-005	 -3.77612E-005	  4.12487E-006
  5.24288E+002	 -9.64286E-006	  6.81415E-006	 -2.90522E-005	  3.15303E-005	 -2.19990E-005	  2.35564E-005	  7.65862E-005	 -3.26935E-005
  5.76717E+002	  2.11138E-005	 -1.22856E-005	 -5.54307E-005	 -2.50043E-005	 -1.85281E-005	  5.15703E-005	  1.51506E-005	 -3.07140E-005
  6.29146E+002	  3.65403E-005	  2.39439E-005	 -2.09847E-005	  2.45912E-005	  7.40919E-006	 -6.90652E-005	  1.79485E-005	  4.36477E-005
  6.81574E+002	 -2.00904E-005	 -3.93414E-005	 -2.69660E-005	  6.40791E-005	 -8.15091E-005	  8.22257E-007	 -2.99362E-005	 -3.86310E-005
  7.34003E+002	  1.52342E-006	 -1.07005E-005	  1.37125E-005	  7.56990E-005	  1.17800E-005	  9.48232E-005	  2.30760E-006	  1.90461E-005
  7.86432E+002	  5.67546E-006	 -2.28463E-005	  5.89260E-005	 -8.54070E-006	 -6.43243E-005	 -3.05927E-005	  6.40211E-005	  3.16925E-005
  8.38861E+002	 -5.23842E-006	 -2.16532E-005	  4.81939E-007	 -2.02713E-005	  6.83612E-007	  4.67731E-005	  3.84776E-005	  1.32567E-005
  9.43718E+002	  1.62817E-005	  2.48392E-005	  9.86513E-006	 -1.63809E-005	 -1.30763E-005	 -1.21403E-005	 -4.00855E-005	  3.24646E-005
  1.04858E+003	  8.99366E-006	 -8.53864E-006	 -1.05744E-005	 -1.24248E-006	  5.24023E-005	  1.31984E-005	  5.40123E-006	 -8.53402E-006
  1.15343E+003	  1.09042E-005	 -1.44146E-005	 -3.88326E-006	  4.78796E-005	  7.32877E-006	 -4.74162E-005	 -2.09232E-005	  1.07341E-006
  1.25829E+003	 -9.19024E-007	 -7.59281E-006	  2.00979E-005	  4.38884E-005	  2.43413E-005	  4.30571E-005	 -7.35679E-006	  2.62944E-006
  1.36315E+003	 -4.49148E-006	 -1.49348E-006	 -3.82362E-005	  3.67414E-005	  1.77718E-005	 -1.61450E-005	 -9.35541E-006	 -5.32716E-006
  1.46801E+003	 -1.36909E-005	  3.55227E-005	 -2.40119E-005	  6.28677E-005	 -3.04659E-005	 -1.62764E-005	 -3.10026E-005	 -1.49273E-005
  1.57286E+003	 -7.05556E-006	 -1.88350E-005	  5.23559E-006	 -2.34279E-005	 -5.23515E-005	  1.23316E-005	  4.26871E-006	 -7.91364E-007
  1.67772E+003	  1.32995E-005	 -2.48044E-005	 -1.95789E-006	  1.81107E-005	 -5.41310E-005	  6.64562E-007	 -4.41079E-006	 -1.11102E-006
  1.88744E+003	  1.64197E-005	  1.51099E-006	 -2.05803E-005	  5.91251E-005	  4.07165E-006	 -1.27219E-005	 -2.55321E-006	 -1.52591E-005
  2.09715E+003	 -1.65852E-006	 -1.25222E-005	 -1.64846E-006	 -2.49831E-006	 -9.62240E-007	 -2.27754E-006	 -1.51730E-005	  1.24244E-005
  2.30687E+003	  9.40759E-006	  4.37797E-006	  1.81499E-005	 -1.50803E-005	  2.10895E-005	  5.67204E-006	 -4.48847E-006	 -2.75917E-005
  2.51658E+003	 -1.32751E-005	  1.68750E-005	  3.22562E-005	  3.51759E-005	 -9.50751E-006	 -3.18247E-005	  3.22516E-005	 -9.14820E-006
  2.72630E+003	  4.44335E-006	 -1.35746E-005	  2.45250E-005	 -7.08847E-007	  1.62544E-006	 -2.12534E-005	  4.83509E-005	  7.00255E-006
  2.93601E+003	  1.66868E-005	  2.71557E-005	 -2.59009E-005	  4.70640E-005	  2.56447E-005	 -1.92142E-005	 -3.02760E-006	  2.48371E-005
"Count Rate"
       0.11679	      44.74277	      29.38216	      24.06011	      19.08775	      18.60160	      22.56755	      24.75096	      32.59757
       0.23357	      44.89629	      29.26276	      24.11981	      18.55895	      18.83188	      22.57608	      24.10276	      31.21589
       0.35036	      44.66601	      29.04101	      23.30957	      18.32014	      18.15809	      21.95347	      24.87889	      32.47816
       0.46714	      43.92399	      29.79155	      24.07717	      18.70394	      18.90864	      22.69548	      24.45244	      32.66580
       0.58393	      44.29073	      30.53357	      24.72537	      18.60160	      18.50778	      22.46520	      23.89806	      32.58904
       0.70072	      44.26515	      30.72973	      24.39274	      18.37984	      18.77217	      21.85112	      24.70831	      32.75109
       0.81750	      43.91546	      30.16683	      23.15605	      18.50778	      19.12186	      22.82342	      24.42686	      31.16471
       0.93429	      43.32697	      30.09859	      24.35863	      18.38837	      18.90011	      22.46520	      24.98977	      32.28200
       1.05107	      44.36749	      29.59539	      25.14329	      19.53125	      18.86599	      22.14110	      24.93006	      32.33318
       1.16786	      45.07540	      29.30540	      23.70190	      18.83188	      18.87452	      22.03023	      24.31598	      32.90461
       1.28465	      42.36320	      30.10712	      23.91512	      18.54189	      18.85746	      22.20933	      24.35863	      32.95579
       1.40143	      43.80458	      29.27129	      23.88953	      17.84252	      19.54831	      22.27757	      23.95777	      31.79585
       1.51822	      44.70865	      30.40564	      23.87247	      18.98540	      18.26044	      21.81700	      24.19658	      32.59757
       1.63500	      44.29926	      29.29688	      24.35010	      18.24338	      18.07280	      22.80636	      24.17099	      32.24789
       1.75179	      43.48048	      28.83631	      23.94071	      19.49714	      19.22421	      22.40550	      24.18805	      31.56557
       1.86858	      43.51460	      29.54421	      24.28186	      17.94487	      19.44596	      22.85753	      23.94071	      32.76815
       1.98536	      44.63189	      30.14124	      24.54626	      18.69542	      18.55895	      22.67842	      24.58891	      32.26494
       2.10215	      43.15639	      30.02183	      24.87036	      18.84041	      18.41396	      21.11763	      25.12623	      32.55493
       2.21894	      44.39308	      29.49304	      24.51215	      19.28391	      18.61013	      22.00464	      24.10276	      32.92167
       2.33572	      44.57219	      28.95572	      24.45244	      18.70394	      19.10480	      22.55902	      25.28828	      32.22230
       2.45251	      43.59136	      29.05807	      23.96629	      19.17303	      18.85746	      22.34580	      24.48656	      31.45469
       2.56929	      44.22250	      28.82778	      24.53773	      18.22632	      18.26897	      22.37138	      23.79572	      31.78732
       2.68608	      43.77047	      29.00689	      23.76160	      18.36279	      18.20927	      22.32874	      25.10917	      31.95790
       2.80287	      44.45279	      30.10712	      23.93218	      18.81482	      18.31161	      23.19869	      24.99829	      32.45258
       2.91965	      44.81100	      28.66573	      23.82130	      19.38626	      18.45660	      22.55902	      25.31386	      31.52293
       3.03644	      43.68518	      29.16041	      24.17952	      18.72953	      18.85746	      22.12404	      24.16246	      31.97496
       3.15322	      45.63831	      30.02183	      24.41833	      17.97898	      19.01098	      22.27757	      25.59532	      32.92167
       3.27001	      44.52954	      28.85337	      23.62514	      18.73806	      18.16662	      21.62937	      24.93859	      31.73615
       3.38680	      43.65959	      29.04101	      24.49509	      19.12186	      18.40543	      22.22639	      24.35010	      32.74256
       3.50358	      43.57430	      29.82567	      23.57396	      17.83399	      18.13251	      21.68907	      24.53773	      31.65939
       3.62037	      43.54019	      29.39922	      23.65925	      19.10480	      17.79988	      22.90871	      24.10276	      32.35023
       3.73715	      44.07751	      29.57833	      24.64008	      19.07922	      18.17515	      22.59314	      24.67419	      32.35023
       3.85394	      43.35255	      29.22864	      24.61449	      18.50778	      18.37984	      22.45667	      23.98335	      32.97284
       3.97073	      43.54019	      30.09859	      24.09423	      18.84894	      18.03016	      22.72960	      24.29892	      32.29053
       4.08751	      44.04340	      29.12630	      23.51426	      18.42249	      18.58454	      22.37138	      24.40127	      31.69350
       4.20430	      43.74488	      29.12630	      23.79572	      18.52484	      18.19221	      22.85753	      23.92365	      32.62316
       4.32108	      43.97516	      28.80220	      24.18805	      18.26044	      19.24980	      22.26904	      24.22216	      32.63169
       4.43787	      43.36108	      29.75744	      24.62302	      19.37773	      18.39690	      22.56755	      24.57185	      32.05172
       4.55466	      43.40372	      29.77449	      24.83624	      18.98540	      18.41396	      22.09846	      23.64219	      32.07730
       4.67144	      44.00075	      29.49304	      23.53985	      18.54189	      18.65277	      22.94282	      24.16246	      32.58904
       4.78823	      43.34402	      28.53780	      23.22428	      18.66130	      18.47366	      22.43109	      24.32451	      32.45258
       4.90501	      43.95811	      30.14977	      23.34368	      18.64424	      18.06427	      22.55902	      24.92153	      32.55493
       5.02180	      44.24809	      29.27982	      23.79572	      18.61865	      18.86599	      22.08993	      24.60596	      32.48669
       5.13859	      43.43784	      29.63803	      23.80424	      18.46513	      18.37132	      22.54196	      24.32451	      33.70633
       5.25537	      44.22250	      28.96425	      23.62514	      18.88305	      18.44808	      21.85965	      24.51215	      32.35876
       5.37216	      43.81311	      29.26276	      24.06864	      18.43102	      18.19221	      22.20933	      24.75948	      31.36941
       5.48894	      42.89199	      29.39069	      24.15393	      18.38837	      17.93634	      22.53343	      24.23922	      32.11995
       5.60573	      43.71930	      28.77661	      23.43750	      18.90864	      18.36279	      22.35433	      24.48656	      31.94084
       5.72252	      44.35897	      29.18600	      24.69978	      19.04510	      18.72953	      22.50785	      23.96629	      33.36517
       5.83930	      42.71288	      30.04742	      24.11981	      18.75512	      18.31161	      22.55049	      24.46950	      32.63169
       5.95609	      44.12016	      30.25212	      24.04305	      18.91717	      18.14104	      22.08993	      23.97482	      32.35023
       6.07287	      44.22250	      30.61886	      23.61661	      18.69542	      18.53337	      22.57608	      24.01747	      31.58263
       6.18966	      43.45490	      29.57833	      24.05158	      19.26685	      17.69753	      23.00253	      24.03452	      31.75321
       6.30645	      43.82164	      28.46104	      24.39274	      18.91717	      18.49072	      21.79142	      24.17099	      32.71698
       6.42323	      43.94958	      29.93654	      23.62514	      18.56748	      18.68689	      23.45456	      25.30534	      32.45258
       6.54002	      43.46343	      29.61245	      24.30745	      18.09839	      18.91717	      22.49932	      25.12623	      32.50375
       6.65680	      43.82164	      29.14335	      24.13687	      18.45660	      18.56748	      22.32874	      24.62302	      32.64874
       6.77359	      44.84512	      29.91949	      24.46097	      18.98540	      18.01310	      21.93641	      24.13687	      31.60822
       6.89038	      43.87282	      29.97919	      23.79572	      19.01951	      18.96834	      21.79995	      24.26481	      32.84491
       7.00716	      44.74277	      29.46745	      24.43538	      18.08986	      18.34573	      22.44814	      24.63155	      33.04108
       7.12395	      44.08604	      29.27982	      24.75096	      18.47366	      18.84041	      21.97905	      25.21152	      32.19671
       7.24074	      43.46343	      29.25423	      24.12834	      19.25832	      18.39690	      21.93641	      24.69978	      32.21377
       7.35752	      44.66601	      28.90454	      23.98335	      19.04510	      18.11545	      22.19228	      23.87247	      32.45258
       7.47431	      43.08815	      30.22653	      24.34157	      18.30308	      18.64424	      21.67201	      23.97482	      31.67645
       7.59109	      44.44426	      28.95572	      24.18805	      18.61865	      18.55042	      22.27757	      24.98124	      32.43552
       7.70788	      43.48901	      29.87684	      23.78719	      18.09839	      17.99604	      22.95988	      24.49509	      31.53998
       7.82467	      44.30779	      29.09218	      24.33304	      18.61013	      19.18156	      22.63578	      24.69125	      33.04108
       7.94145	      44.29073	      30.02183	      24.12834	      19.33508	      18.64424	      22.26904	      23.91512	      33.50164
       8.05824	      43.86429	      29.77449	      24.40980	      18.80629	      17.91075	      22.44814	      23.36074	      32.29053
       8.17502	      43.73635	      29.39922	      24.30745	      18.75512	      18.49072	      22.67842	      24.81919	      31.79585
       8.29181	      44.45279	      28.82778	      24.17099	      19.21568	      19.34361	      21.81700	      24.02600	      31.39499
       8.40860	      43.94958	      30.25212	      24.18805	      18.36279	      18.62718	      22.52490	      24.35863	      32.70845
       8.52538	      43.44637	      29.71479	      23.91512	      18.79776	      18.08133	      23.22428	      24.89595	      31.30970
       8.64217	      44.09457	      29.09218	      23.57396	      19.05363	      18.36279	      22.57608	      24.25628	      32.75109
       8.75895	      44.41014	      29.96213	      23.57396	      18.69542	      18.72953	      22.12404	      23.89806	      32.23936
       8.87574	      44.04340	      30.52504	      24.40127	      18.37984	      18.46513	      21.87671	      24.20510	      31.51440
       8.99253	      43.54019	      29.09218	      24.28186	      19.22421	      18.14956	      21.68907	      24.98124	      32.33318
       9.10931	      43.07963	      30.22653	      24.06864	      18.20927	      18.56748	      21.83406	      24.29892	      33.06666
       9.22610	      44.87923	      29.97066	      24.02600	      18.93423	      18.87452	      22.49079	      25.47591	      32.44405
       9.34288	      44.09457	      29.75744	      24.41833	      18.65277	      18.54189	      22.44814	      24.59743	      32.17965
       9.45967	      45.04128	      29.06659	      23.05370	      18.27750	      19.49714	      22.29462	      23.76160	      33.86838
       9.57646	      43.34402	      29.51863	      24.40127	      18.43955	      19.24127	      22.86606	      24.51215	      32.81932
       9.69324	      43.44637	      29.22864	      25.59532	      18.30308	      18.76365	      23.01958	      24.35863	      32.42699
       9.81003	      43.30991	      29.55274	      24.52920	      18.43955	      18.72100	      22.17522	      24.46097	      32.23083
       9.92681	      44.30779	      29.45040	      24.42686	      18.95981	      18.35426	      22.41403	      25.04094	      31.52293
      10.04360	      44.31632	      29.64656	      24.56332	      19.07069	      18.13251	      22.74666	      24.47803	      33.59546
      10.16039	      43.67665	      28.85337	      24.00894	      18.60160	      17.76576	      22.53343	      23.93218	      31.69350
      10.27717	      44.35044	      29.68921	      23.48867	      19.42890	      18.44808	      23.22428	      24.70831	      32.46964
      10.39396	      43.48901	      29.30540	      23.91512	      19.01951	      17.74018	      22.63578	      24.27333	      32.72551
      10.51074	      44.64895	      30.12418	      23.09634	      18.78923	      18.37984	      22.67842	      24.33304	      32.00055
      10.62753	      44.93040	      29.62097	      24.30745	      18.79776	      18.72953	      22.32021	      23.93218	      32.06025
      10.74432	      43.93252	      29.33952	      23.66778	      18.53337	      17.94487	      22.65284	      23.82130	      33.28841
      10.86110	      45.02422	      29.39069	      24.28186	      18.56748	      18.84894	      22.33727	      23.80424	      33.73192
      10.97789	      43.48048	      28.34163	      23.91512	      18.10692	      18.68689	      21.61231	      24.36715	      32.00055
      11.09467	      44.16280	      29.67215	      23.88953	      19.44596	      18.11545	      22.16669	      24.46097	      32.70845
      11.21146	      43.69371	      28.66573	      23.21575	      18.52484	      18.01310	      21.91935	      23.74454	      31.48028
      11.32825	      44.28220	      29.92802	      23.78719	      19.38626	      19.43743	      21.97905	      23.98335	      32.17112
      11.44503	      44.73424	      29.46745	      24.60596	      18.02163	      18.10692	      22.12404	      23.79572	      31.44617
      11.56182	      43.84723	      29.02395	      23.50573	      18.85746	      19.19009	      22.29462	      23.98335	      33.42488
      11.67861	      44.05193	      30.21800	      23.99188	      19.18156	      19.00246	      21.93641	      24.70831	      32.05172
      11.79539	      43.96664	      29.37364	      24.00041	      18.72100	      18.69542	      22.29462	      24.34157	      32.37582
      11.91218	      43.01139	      29.19453	      24.61449	      18.51631	      18.60160	      22.98547	      24.58038	      32.81079
      12.02896	      43.10521	      29.80861	      23.13046	      18.61865	      18.59307	      21.91935	      24.54626	      32.67433
      12.14575	      44.13721	      29.28835	      24.64008	      18.24338	      18.36279	      21.52702	      25.42474	      32.06878
      12.26254	      43.01139	      29.52716	      24.81919	      19.02804	      18.75512	      22.21786	      24.23069	      32.25641
      12.37932	      44.58072	      29.80008	      24.98977	      18.95128	      18.18368	      21.94494	      24.10276	      31.56557
      12.49611	      43.02845	      29.18600	      24.85330	      18.30308	      18.10692	      22.34580	      24.35010	      32.92167
      12.61289	      44.32485	      29.23717	      24.43538	      18.62718	      18.51631	      21.79995	      24.14540	      32.25641
      12.72968	      43.96664	      29.21159	      23.96629	      18.21779	      18.07280	      22.50785	      24.53773	      32.70845
      12.84647	      44.85365	      29.75744	      24.09423	      18.04722	      18.35426	      22.16669	      24.01747	      32.41846
      12.96325	      43.30138	      29.92802	      23.88953	      18.48219	      18.21779	      22.57608	      24.59743	      33.43341
      13.08004	      43.65959	      29.69773	      24.23922	      19.71036	      18.04722	      22.33727	      24.11981	      31.47175
      13.19682	      45.24598	      29.03248	      23.95777	      18.88305	      18.16662	      22.24345	      24.23922	      31.72762
      13.31361	      44.18839	      29.48451	      23.20722	      19.04510	      18.33720	      22.41403	      24.23069	      32.28200
      13.43040	      45.04128	      29.77449	      23.84689	      18.84041	      18.47366	      22.63578	      24.18805	      32.23083
      13.54718	      44.07751	      29.35658	      23.33515	      18.55895	      18.33720	      22.04729	      25.17740	      32.16259
      13.66397	      42.70435	      29.42481	      24.36715	      18.31161	      18.31161	      22.72107	      24.23069	      31.69350
      13.78075	      44.14574	      30.04742	      23.88953	      18.88305	      17.65489	      22.77224	      24.39274	      32.59757
      13.89754	      43.52313	      28.99836	      23.57396	      18.72953	      18.57601	      22.81489	      22.92576	      31.54851
      14.01433	      43.59136	      28.91307	      23.55691	      18.66983	      18.19221	      22.27757	      24.72537	      31.27559
      14.13111	      43.18197	      28.88749	      23.78719	      18.50778	      18.70394	      22.42256	      25.10917	      32.40141
      14.24790	      43.14786	      29.82567	      23.69337	      18.57601	      18.10692	      22.69548	      24.17099	      31.99202
      14.36468	      44.57219	      29.33952	      23.08781	      18.37984	      18.45660	      22.15816	      24.93006	      32.44405
      14.48147	      44.24809	      29.64656	      24.27333	      18.49072	      18.99393	      22.78077	      24.68272	      32.32465
      14.59826	      43.25021	      30.45681	      24.75948	      18.90011	      19.00246	      21.47585	      24.88742	      32.55493
      14.71504	      43.31844	      29.88537	      23.90659	      19.22421	      18.48219	      22.65284	      24.02600	      32.34170
      14.83183	      43.80458	      30.38858	      24.17099	      18.86599	      18.30308	      22.66137	      25.33945	      31.76174
      14.94861	      44.06898	      28.99836	      23.85542	      18.74659	      18.13251	      22.41403	      24.61449	      32.76815
      15.06540	      44.21397	      29.27129	      24.15393	      18.63571	      19.31803	      22.81489	      24.84477	      32.51228
      15.18219	      43.79605	      29.99625	      23.44603	      19.14745	      17.97898	      22.20081	      23.68484	      33.10078
      15.29897	      44.19691	      29.12630	      23.68484	      18.45660	      18.51631	      22.72960	      24.45244	      32.28200
      15.41576	      43.46343	      29.36511	      24.11129	      18.05574	      18.77217	      22.16669	      24.35863	      33.32253
      15.53254	      44.64042	      29.00689	      24.21363	      18.66130	      18.70394	      22.57608	      23.63367	      32.40141
      15.64933	      44.53807	      30.16683	      24.10276	      18.63571	      18.76365	      22.74666	      25.01535	      31.87261
      15.76612	      43.19050	      29.37364	      23.65925	      17.57813	      18.14104	      22.26051	      24.06011	      32.56345
      15.88290	      42.58495	      29.41628	      24.03452	      18.70394	      17.92781	      22.85753	      23.74454	      31.97496
      15.99969	      43.83870	      29.42481	      23.29251	      18.37132	      18.20074	      22.04729	      24.19658	      33.16901
      16.11647	      44.36749	      29.30540	      23.75307	      18.38837	      17.83399	      21.80847	      24.81919	      32.10289
      16.23326	      44.00075	      28.96425	      24.17952	      19.05363	      18.98540	      22.25198	      24.03452	      32.86197
      16.35005	      44.82806	      28.74249	      24.34157	      18.62718	      18.21779	      22.60167	      24.32451	      32.56345
      16.46683	      43.55725	      29.40775	      24.15393	      19.24127	      17.94487	      22.62725	      23.75307	      32.92167
      16.58362	      44.31632	      29.99625	      23.61661	      18.25191	      18.17515	      21.72318	      23.37780	      32.54640
      16.70041	      44.77688	      29.24570	      23.54838	      19.10480	      18.13251	      22.61019	      23.76160	      32.37582
      16.81719	      43.88987	      29.25423	      23.82130	      18.40543	      18.24338	      22.23492	      24.02600	      31.69350
      16.93398	      44.12016	      28.06871	      23.55691	      18.84894	      18.60160	      22.24345	      24.23922	      32.51228
      17.05076	      42.79817	      29.92802	      23.77013	      18.80629	      18.01310	      22.00464	      25.04094	      32.40141
      17.16755	      43.48901	      29.48451	      24.44391	      17.25403	      18.35426	      22.34580	      24.28186	      31.65086
      17.28433	      44.75130	      29.47598	      24.58891	      18.35426	      18.73806	      22.21786	      24.15393	      31.90673
      17.40112	      43.91546	      29.75744	      24.04305	      18.44808	      19.07069	      21.76583	      24.35863	      32.46964
      17.51791	      43.03698	      29.33099	      24.29039	      18.43102	      18.60160	      21.94494	      23.82983	      31.57410
      17.63469	      42.72141	      29.45040	      23.82130	      18.72953	      19.20715	      22.18375	      23.65925	      32.29906
      17.75148	      44.08604	      28.71691	      23.75307	      18.95981	      18.23485	      21.73171	      23.89806	      32.69139
      17.86827	      43.58283	      29.94507	      23.67631	      18.57601	      18.12398	      22.25198	      24.38421	      31.85555
      17.98505	      43.99222	      29.99625	      23.77013	      18.47366	      18.41396	      22.38844	      23.69337	      31.83850
      18.10184	      42.83229	      29.24570	      23.88100	      19.28391	      18.08986	      23.09634	      23.51426	      32.16259
      18.21862	      44.04340	      29.23717	      24.41833	      18.61865	      18.37132	      22.48226	      24.11981	      32.00908
      18.33541	      42.77258	      29.82567	      23.94071	      18.32014	      18.20074	      22.57608	      23.61661	      31.24147
      18.45220	      44.39308	      29.39922	      24.06011	      18.61013	      18.78923	      21.47585	      24.33304	      32.49522
      18.56898	      43.74488	      28.71691	      23.88100	      17.94487	      18.28603	      22.19228	      24.81919	      31.61674
      18.68577	      43.66812	      29.12630	      23.88100	      18.62718	      18.48219	      22.30315	      23.72748	      32.55493
      18.80255	      42.88346	      29.65509	      24.06011	      18.76365	      18.69542	      22.62725	      24.01747	      31.32676
      18.91934	      42.69582	      29.61245	      23.92365	      19.18156	      18.12398	      22.31168	      24.22216	      32.54640
      19.03613	      43.89840	      29.72332	      24.34157	      19.04510	      18.35426	      21.50996	      23.97482	      31.91526
      19.15291	      43.71077	      29.51863	      24.22216	      18.72953	      18.55042	      22.66137	      23.70190	      32.71698
      19.26970	      44.60630	      29.12630	      24.00041	      18.00457	      18.58454	      22.84900	      23.34368	      32.51228
      19.38648	      42.90905	      28.80220	      23.47161	      18.51631	      18.30308	      22.47373	      25.14329	      32.71698
      19.50327	      42.94316	      28.75955	      24.85330	      18.34573	      18.20074	      22.15816	      24.81066	      33.39076
      19.62006	      43.66812	      30.14124	      24.23069	      19.36067	      19.04510	      22.86606	      25.05800	      31.82144
      19.73684	      43.32697	      28.93013	      23.67631	      17.88517	      18.39690	      22.14110	      24.38421	      32.06878
      19.85363	      43.25021	      29.80861	      24.06864	      18.11545	      18.22632	      22.03876	      24.30745	      32.75962
      19.97042	      44.23103	      29.39922	      23.89806	      18.75512	      17.78282	      22.55049	      23.46309	      32.71698
      20.08720	      43.34402	      29.26276	      23.84689	      18.26897	      18.66983	      22.23492	      24.33304	      31.89820
      20.20399	      43.84723	      29.74891	      24.53773	      17.79988	      18.51631	      21.74024	      23.82130	      32.18818
      20.32077	      44.93040	      29.02395	      24.11129	      18.43955	      18.61865	      21.93641	      23.65925	      32.51228
      20.43756	      43.43784	      30.21800	      22.93429	      18.03016	      18.72953	      22.33727	      24.46950	      32.69992
      20.55434	      43.45490	      29.31393	      24.07717	      17.77429	      18.27750	      22.32874	      23.94071	      32.34170
      20.67113	      43.65959	      29.61245	      24.39274	      19.09628	      18.57601	      21.91935	      24.34157	      32.82785
      20.78792	      43.32697	      28.99836	      23.33515	      18.32867	      18.87452	      21.74024	      24.21363	      32.67433
      20.90470	      42.88346	      30.56769	      23.77013	      19.17303	      18.21779	      21.60378	      24.48656	      31.48881
      21.02149	      44.53807	      29.19453	      23.32662	      18.08133	      17.86811	      21.74877	      24.59743	      32.00055
      21.13828	      43.81311	      30.55063	      24.58038	      18.45660	      18.90011	      21.95347	      24.65714	      32.06025
      21.25506	      44.18839	      29.10071	      23.81277	      17.85105	      19.24127	      22.14963	      25.15182	      31.65939
      21.37185	      43.10521	      29.58686	      24.88742	      18.97687	      18.12398	      22.49932	      25.13476	      31.40352
      21.48863	      43.71077	      29.67215	      24.53773	      18.92570	      18.75512	      22.33727	      24.39274	      34.09866
      21.60542	      44.14574	      30.14124	      24.05158	      18.41396	      19.41184	      21.86818	      24.51215	      33.27988
      21.72220	      43.16492	      29.16894	      24.50362	      18.13251	      18.19221	      21.50996	      24.00894	      31.84702
      21.83899	      43.83870	      29.29688	      24.46097	      18.07280	      18.19221	      22.32021	      24.83624	      31.86408
      21.95578	      43.59989	      29.58686	      24.23922	      18.16662	      18.58454	      22.66137	      24.21363	      32.64022
      22.07256	      42.49113	      28.45251	      22.93429	      18.46513	      18.78923	      22.22639	      23.97482	      31.94937
      22.18935	      44.63189	      29.28835	      24.86183	      18.16662	      17.53548	      21.95347	      24.62302	      31.96643
      22.30614	      43.48901	      29.62097	      23.91512	      18.32014	      17.62077	      22.41403	      24.67419	      31.65086
      22.42292	      43.35255	      29.02395	      23.88100	      18.76365	      18.71247	      22.65284	      24.29892	      32.58904
      22.53971	      45.45920	      28.81926	      24.17952	      18.84894	      18.82335	      22.04729	      24.50362	      32.51228
      22.65649	      44.63189	      30.09859	      23.78719	      18.66130	      19.14745	      22.88312	      24.17099	      32.59757
      22.77328	      43.22462	      29.33099	      24.98124	      18.21779	      19.20715	      22.80636	      24.65714	      32.19671
      22.89007	      44.00075	      28.93866	      24.35863	      18.53337	      19.15598	      22.58461	      24.01747	      32.13701
      23.00685	      43.69371	      29.37364	      24.17952	      18.24338	      18.97687	      22.23492	      23.59955	      31.36088
      23.12364	      43.83870	      28.71691	      24.33304	      18.72100	      18.41396	      22.14963	      24.30745	      31.48028
      23.24042	      43.90693	      29.80861	      23.33515	      18.57601	      17.21991	      22.73813	      23.68484	      32.26494
      23.35721	      44.56366	      28.65721	      24.03452	      18.94275	      18.05574	      22.05581	      23.56543	      32.36729
      23.47400	      45.23745	      29.51010	      24.29892	      18.51631	      18.30308	      22.59314	      23.85542	      32.34170
      23.59078	      43.14786	      29.85979	      23.44603	      18.19221	      18.55042	      22.31168	      24.43538	      32.23936
      23.70757	      43.48901	      29.48451	      24.30745	      18.34573	      18.55895	      22.58461	      24.10276	      32.54640
      23.82435	      43.53166	      29.62097	      24.24775	      19.18156	      19.12186	      21.33085	      23.49720	      32.51228
      23.94114	      44.05193	      29.64656	      24.57185	      18.83188	      18.27750	      22.25198	      24.57185	      31.69350
      24.05793	      42.65318	      29.17747	      24.07717	      18.07280	      18.79776	      22.26904	      24.46097	      32.42699
      24.17471	      43.87282	      29.48451	      23.86395	      17.84252	      18.59307	      21.90229	      23.77866	      32.41846
      24.29150	      43.40372	      28.92160	      24.53773	      18.56748	      18.36279	      21.59525	      24.43538	      31.82144
      24.40828	      44.46131	      29.56980	      23.82983	      19.20715	      18.41396	      22.02170	      24.93006	      33.03255
      24.52507	      43.55725	      30.91737	      23.49720	      18.78923	      18.52484	      23.29251	      24.68272	      32.37582
      24.64186	      43.85576	      29.52716	      24.02600	      18.67836	      18.09839	      21.85112	      25.11770	      33.64663
      24.75864	      44.01781	      29.17747	      23.77013	      18.84041	      17.90222	      21.96199	      24.29892	      31.88967
      24.87543	      44.93893	      29.47598	      23.95777	      18.43955	      18.89158	      21.19439	      24.06011	      31.59969
      24.99221	      43.36961	      29.60392	      24.35863	      18.15809	      18.68689	      21.71466	      24.28186	      31.82144
      25.10900	      43.30138	      29.46745	      23.93218	      18.05574	      19.16451	      21.81700	      24.60596	      32.25641
      25.22579	      44.88776	      28.84484	      24.35863	      19.02804	      18.76365	      22.26051	      24.12834	      31.83850
      25.34257	      44.37602	      28.92160	      23.85542	      18.03869	      18.68689	      22.26051	      24.93859	      32.11142
      25.45936	      44.00075	      28.75955	      23.85542	      19.61654	      18.49072	      21.56114	      24.93006	      32.82785
      25.57615	      42.93464	      30.26064	      25.07505	      18.20927	      18.59307	      22.03023	      24.31598	      31.40352
      25.69293	      43.68518	      29.62097	      23.70190	      18.47366	      19.32656	      21.35644	      24.29039	      32.11142
      25.80972	      44.32485	      29.22864	      24.66567	      18.66983	      18.95981	      22.72107	      23.41191	      31.76174
      25.92650	      43.88987	      28.64015	      24.32451	      18.69542	      18.74659	      22.19228	      24.06011	      32.36729
      26.04329	      44.52954	      29.45893	      24.49509	      18.15809	      19.42890	      22.58461	      23.74454	      32.39288
      26.16007	      44.05193	      28.70838	      23.39486	      18.62718	      18.61013	      21.74024	      24.25628	      32.45258
      26.27686	      44.29926	      29.59539	      23.94071	      18.13251	      18.25191	      21.91935	      23.89806	      32.06025
      26.39365	      44.64042	      29.51010	      24.29039	      18.51631	      18.44808	      21.93641	      25.17740	      32.07730
      26.51043	      43.32697	      29.88537	      23.87247	      18.87452	      18.35426	      21.59525	      24.56332	      32.42699
      26.62722	      41.72353	      30.09859	      23.53985	      18.26044	      18.56748	      22.47373	      24.64008	      31.36941
      26.74401	      44.23103	      29.82567	      24.09423	      18.43955	      18.32014	      22.24345	      23.64219	      32.41846
      26.86079	      44.07751	      29.83420	      24.29892	      17.85958	      18.78923	      22.96841	      24.11981	      32.23083
      26.97758	      44.39308	      29.61245	      23.79572	      19.20715	      18.57601	      22.34580	      24.45244	      32.58904
      27.09436	      43.54019	      30.32888	      24.87036	      17.81693	      18.42249	      21.95347	      24.71684	      31.77879
      27.21115	      43.59989	      28.78514	      24.06864	      18.52484	      18.57601	      22.26904	      25.00682	      32.72551
      27.32793	      44.38455	      28.33311	      23.83836	      18.68689	      18.14956	      22.71254	      24.35863	      31.86408
      27.44472	      43.23315	      29.33099	      24.21363	      17.79988	      18.35426	      21.38203	      24.08570	      33.15195
      27.56151	      43.21609	      28.61456	      23.73601	      18.26044	      18.14104	      23.16457	      25.00682	      31.89820
      27.67829	      44.18839	      29.43334	      22.75519	      18.20074	      18.72100	      22.25198	      24.06864	      32.51228
      27.79508	      43.51460	      29.42481	      24.30745	      19.24127	      18.23485	      21.96199	      24.51215	      30.82355
      27.91187	      44.16280	      30.15830	      23.67631	      18.78070	      18.62718	      22.86606	      23.98335	      31.73615
      28.02865	      43.65107	      29.18600	      24.47803	      18.40543	      18.86599	      22.25198	      25.15182	      32.10289
      28.14544	      44.10310	      29.87684	      23.93218	      18.65277	      17.71459	      21.71466	      24.06011	      32.07730
      28.26222	      44.02634	      29.60392	      24.39274	      18.32014	      18.53337	      22.39697	      24.59743	      32.18818
      28.37901	      43.97516	      29.51863	      24.00894	      18.78923	      18.22632	      22.55902	      23.75307	      32.04319
      28.49580	      43.47196	      30.05595	      24.10276	      18.37132	      18.72953	      22.50785	      24.32451	      31.58263
      28.61258	      44.41867	      29.22864	      23.72748	      19.07922	      18.37132	      22.07287	      24.04305	      32.33318
      28.72937	      44.02634	      29.31393	      23.65925	      18.31161	      18.05574	      21.57819	      23.77013	      32.87902
      28.84615	      45.22039	      29.61245	      24.24775	      18.62718	      17.88517	      22.47373	      24.10276	      31.76174
      28.96294	      43.64254	      29.16041	      24.88742	      18.23485	      18.20074	      22.66990	      23.77013	      32.46964
      29.07973	      42.49966	      29.15188	      24.18805	      18.82335	      19.16451	      21.95347	      24.62302	      32.29906
      29.19651	      44.06898	      29.75744	      23.86395	      18.63571	      18.74659	      22.20933	      24.41833	      31.77879
      29.31330	      43.83017	      28.84484	      23.84689	      18.39690	      19.08775	      22.33727	      24.71684	      31.56557
      29.43008	      44.32485	      29.75744	      23.64219	      18.21779	      18.66983	      22.14110	      25.43327	      32.89608
      29.54687	      42.97728	      28.98130	      24.68272	      18.78923	      18.60160	      22.66990	      24.53773	      32.29053
      29.66366	      43.72783	      29.72332	      23.86395	      18.67836	      18.67836	      22.16669	      24.05158	      32.10289

Monitor Diode	1568440.36
