ALV-7004 CGS-8F Data, Single Run Data
Date :	"05.01.2021"
Time :	"15:58:41"
Samplename : 	"7 2021 MW002-03"
SampMemo(0) : 	"nach ca 3 Monaten, kein Detektor abgeschwächt, "
SampMemo(1) : 	"unverdünnt"
SampMemo(2) : 	""
SampMemo(3) : 	""
SampMemo(4) : 	""
SampMemo(5) : 	""
SampMemo(6) : 	""
SampMemo(7) : 	""
SampMemo(8) : 	""
SampMemo(9) : 	""
Temperature [K] :	     292.93258
Viscosity [cp]  :	       1.00710
Refractive Index:	       1.33200
Wavelength [nm] :	     632.80000
Angle(1)[°]     :	      34.00000
Angle(2)[°]     :	      50.00000
Angle(3)[°]     :	      66.00000
Angle(4)[°]     :	      82.00000
Angle(5)[°]     :	      98.00000
Angle(6)[°]     :	     114.00000
Angle(7)[°]     :	     130.00000
Angle(8)[°]     :	     146.00000
Duration [s]    :	          30.0
Runs            :	         1
Mode            :	"8 x AUTO, 100 ns STC"
MeanCR1 [kHz]   :	     134.23157
MeanCR2 [kHz]   :	     103.82098
MeanCR3 [kHz]   :	      95.48001
MeanCR4 [kHz]   :	      81.65427
MeanCR5 [kHz]   :	      88.70261
MeanCR6 [kHz]   :	     110.20760
MeanCR7 [kHz]   :	     131.66684
MeanCR8 [kHz]   :	     194.56932
Atten[1]        :	       1.00000
Atten[2]        :	       1.00000
Atten[3]        :	       1.00000
RelSens[1]      :	       1.00000
RelSens[2]      :	       1.00000
RelSens[3]      :	       1.00000
RelSens[4]      :	       1.00000
RelSens[5]      :	       1.00000
RelSens[6]      :	       1.00000
RelSens[7]      :	       1.00000
RelSens[8]      :	       1.00000
DC[1][kHz]      :	       0.00000
DC[2][kHz]      :	       0.00000
DC[3][kHz]      :	       0.00000
DC[4][kHz]      :	       0.00000
DC[5][kHz]      :	       0.00000
DC[6][kHz]      :	       0.00000
DC[7][kHz]      :	       0.00000
DC[8][kHz]      :	       0.00000

"Correlation"
  1.00000E-004	  5.70585E-001	  6.82385E-001	  6.24027E-001	  6.63405E-001	  6.64558E-001	  6.99692E-001	  7.14679E-001	  6.26843E-001
  2.00000E-004	  9.80128E-001	  1.00137E+000	  9.60528E-001	  1.00361E+000	  1.00105E+000	  9.88852E-001	  1.01938E+000	  9.64162E-001
  3.00000E-004	  9.73345E-001	  9.94268E-001	  9.60624E-001	  9.85716E-001	  1.00498E+000	  9.62178E-001	  9.89058E-001	  9.58980E-001
  4.00000E-004	  9.71381E-001	  9.66075E-001	  9.69704E-001	  9.89774E-001	  9.95664E-001	  9.69045E-001	  9.88393E-001	  9.62246E-001
  5.00000E-004	  9.71240E-001	  9.77155E-001	  9.60981E-001	  9.71837E-001	  9.70482E-001	  9.72657E-001	  9.86738E-001	  9.53928E-001
  6.00000E-004	  9.69135E-001	  9.78703E-001	  9.62106E-001	  9.85059E-001	  9.86861E-001	  9.61977E-001	  9.86553E-001	  9.56778E-001
  7.00000E-004	  9.69910E-001	  9.81050E-001	  9.77440E-001	  9.78130E-001	  9.67232E-001	  9.75218E-001	  9.79731E-001	  9.44813E-001
  8.00000E-004	  9.68915E-001	  9.82482E-001	  9.69052E-001	  9.71603E-001	  9.73783E-001	  9.61885E-001	  9.96762E-001	  9.47478E-001
  9.00000E-004	  9.63683E-001	  9.76250E-001	  9.52470E-001	  9.80588E-001	  9.72383E-001	  9.59618E-001	  9.67992E-001	  9.52049E-001
  1.00000E-003	  9.65277E-001	  9.84541E-001	  9.66197E-001	  9.79105E-001	  9.83986E-001	  9.64117E-001	  9.79314E-001	  9.54418E-001
  1.10000E-003	  9.66404E-001	  9.70672E-001	  9.57329E-001	  9.77367E-001	  9.61880E-001	  9.62544E-001	  9.74488E-001	  9.46664E-001
  1.20000E-003	  9.67884E-001	  9.74635E-001	  9.49285E-001	  9.74782E-001	  9.90387E-001	  9.63897E-001	  9.80149E-001	  9.44332E-001
  1.30000E-003	  9.72799E-001	  9.65979E-001	  9.49258E-001	  9.89488E-001	  9.59930E-001	  9.58520E-001	  9.67063E-001	  9.49051E-001
  1.40000E-003	  9.60591E-001	  9.67383E-001	  9.65264E-001	  9.76392E-001	  9.84486E-001	  9.59691E-001	  9.83768E-001	  9.41260E-001
  1.50000E-003	  9.70060E-001	  9.79924E-001	  9.60569E-001	  9.72536E-001	  9.70432E-001	  9.50254E-001	  9.88687E-001	  9.57527E-001
  1.60000E-003	  9.71451E-001	  9.69990E-001	  9.62106E-001	  9.55245E-001	  9.70132E-001	  9.47346E-001	  9.85873E-001	  9.46534E-001
  1.80000E-003	  9.64480E-001	  9.67335E-001	  9.57961E-001	  9.63086E-001	  9.55153E-001	  9.51936E-001	  9.81526E-001	  9.42398E-001
  2.00000E-003	  9.67289E-001	  9.66547E-001	  9.55737E-001	  9.73236E-001	  9.57404E-001	  9.49650E-001	  9.66197E-001	  9.43804E-001
  2.20000E-003	  9.67761E-001	  9.77578E-001	  9.62696E-001	  9.73787E-001	  9.66681E-001	  9.66439E-001	  9.84434E-001	  9.53854E-001
  2.40000E-003	  9.62220E-001	  9.75654E-001	  9.54501E-001	  9.73384E-001	  9.71607E-001	  9.50565E-001	  9.73019E-001	  9.38734E-001
  2.60000E-003	  9.62022E-001	  9.72952E-001	  9.55860E-001	  9.71604E-001	  9.59730E-001	  9.50254E-001	  9.70095E-001	  9.37143E-001
  2.80000E-003	  9.67924E-001	  9.68912E-001	  9.62985E-001	  9.78342E-001	  9.63530E-001	  9.54222E-001	  9.79005E-001	  9.37966E-001
  3.00000E-003	  9.68756E-001	  9.71326E-001	  9.60157E-001	  9.73893E-001	  9.64331E-001	  9.50492E-001	  9.69647E-001	  9.35107E-001
  3.20000E-003	  9.67893E-001	  9.73654E-001	  9.62402E-001	  9.74232E-001	  9.69107E-001	  9.49120E-001	  9.71480E-001	  9.37721E-001
  3.60000E-003	  9.66499E-001	  9.70187E-001	  9.57941E-001	  9.64622E-001	  9.63005E-001	  9.49915E-001	  9.65966E-001	  9.35130E-001
  4.00000E-003	  9.65862E-001	  9.69653E-001	  9.54200E-001	  9.75959E-001	  9.55728E-001	  9.54670E-001	  9.60150E-001	  9.36772E-001
  4.40000E-003	  9.67060E-001	  9.66855E-001	  9.56843E-001	  9.72971E-001	  9.55978E-001	  9.39299E-001	  9.64922E-001	  9.35417E-001
  4.80000E-003	  9.65468E-001	  9.69043E-001	  9.49677E-001	  9.68786E-001	  9.62030E-001	  9.42710E-001	  9.65587E-001	  9.33992E-001
  5.20000E-003	  9.69595E-001	  9.70168E-001	  9.58298E-001	  9.62005E-001	  9.55816E-001	  9.46907E-001	  9.65696E-001	  9.28615E-001
  5.60000E-003	  9.64006E-001	  9.71572E-001	  9.57605E-001	  9.67165E-001	  9.61192E-001	  9.50958E-001	  9.56941E-001	  9.29471E-001
  6.00000E-003	  9.66882E-001	  9.69009E-001	  9.60947E-001	  9.69368E-001	  9.57179E-001	  9.43734E-001	  9.55695E-001	  9.26668E-001
  6.40000E-003	  9.64573E-001	  9.67235E-001	  9.55132E-001	  9.71874E-001	  9.57167E-001	  9.41383E-001	  9.58213E-001	  9.26941E-001
  7.20000E-003	  9.65243E-001	  9.68432E-001	  9.47757E-001	  9.64294E-001	  9.56917E-001	  9.39330E-001	  9.54736E-001	  9.24910E-001
  8.00000E-003	  9.64144E-001	  9.70363E-001	  9.49658E-001	  9.64135E-001	  9.52579E-001	  9.33560E-001	  9.52033E-001	  9.18786E-001
  8.80000E-003	  9.63913E-001	  9.65701E-001	  9.47856E-001	  9.67737E-001	  9.48878E-001	  9.34054E-001	  9.40018E-001	  9.16117E-001
  9.60000E-003	  9.63641E-001	  9.63285E-001	  9.49156E-001	  9.67557E-001	  9.45765E-001	  9.26615E-001	  9.47107E-001	  9.12813E-001
  1.04000E-002	  9.62879E-001	  9.61910E-001	  9.44943E-001	  9.65332E-001	  9.52054E-001	  9.31371E-001	  9.45765E-001	  9.09771E-001
  1.12000E-002	  9.64893E-001	  9.62071E-001	  9.45653E-001	  9.60118E-001	  9.38019E-001	  9.25916E-001	  9.43974E-001	  9.08749E-001
  1.20000E-002	  9.63336E-001	  9.59804E-001	  9.47493E-001	  9.57851E-001	  9.39751E-001	  9.21321E-001	  9.34710E-001	  9.02255E-001
  1.28000E-002	  9.62387E-001	  9.62112E-001	  9.43766E-001	  9.58872E-001	  9.40119E-001	  9.22023E-001	  9.35472E-001	  9.00845E-001
  1.44000E-002	  9.62544E-001	  9.61270E-001	  9.41798E-001	  9.53942E-001	  9.38410E-001	  9.14001E-001	  9.32906E-001	  8.95984E-001
  1.60000E-002	  9.61482E-001	  9.57333E-001	  9.40142E-001	  9.51482E-001	  9.30058E-001	  9.15407E-001	  9.20379E-001	  8.91260E-001
  1.76000E-002	  9.60831E-001	  9.60641E-001	  9.37786E-001	  9.51821E-001	  9.29396E-001	  9.08542E-001	  9.16613E-001	  8.84613E-001
  1.92000E-002	  9.59476E-001	  9.57011E-001	  9.35769E-001	  9.43388E-001	  9.24801E-001	  9.04477E-001	  9.15727E-001	  8.80622E-001
  2.08000E-002	  9.60843E-001	  9.56190E-001	  9.35664E-001	  9.39103E-001	  9.24570E-001	  8.96062E-001	  9.03872E-001	  8.72582E-001
  2.24000E-002	  9.57725E-001	  9.51369E-001	  9.31811E-001	  9.38963E-001	  9.20609E-001	  8.92124E-001	  9.01554E-001	  8.67667E-001
  2.40000E-002	  9.58026E-001	  9.50797E-001	  9.29192E-001	  9.31686E-001	  9.16092E-001	  8.92729E-001	  8.98312E-001	  8.60969E-001
  2.56000E-002	  9.58664E-001	  9.50099E-001	  9.27395E-001	  9.33278E-001	  9.10128E-001	  8.86520E-001	  8.92230E-001	  8.54414E-001
  2.88000E-002	  9.56057E-001	  9.48544E-001	  9.23611E-001	  9.28517E-001	  9.03654E-001	  8.73030E-001	  8.78968E-001	  8.44213E-001
  3.20000E-002	  9.55859E-001	  9.48041E-001	  9.19963E-001	  9.21019E-001	  8.93679E-001	  8.68477E-001	  8.70684E-001	  8.33617E-001
  3.52000E-002	  9.54117E-001	  9.43057E-001	  9.15509E-001	  9.15674E-001	  8.90402E-001	  8.59063E-001	  8.60777E-001	  8.23348E-001
  3.84000E-002	  9.52204E-001	  9.41408E-001	  9.12240E-001	  9.11360E-001	  8.82186E-001	  8.50977E-001	  8.51655E-001	  8.11136E-001
  4.16000E-002	  9.51525E-001	  9.39049E-001	  9.07897E-001	  9.03564E-001	  8.75163E-001	  8.42920E-001	  8.40952E-001	  8.00055E-001
  4.48000E-002	  9.49660E-001	  9.37969E-001	  9.06203E-001	  8.99886E-001	  8.64149E-001	  8.33922E-001	  8.30456E-001	  7.90953E-001
  4.80000E-002	  9.48755E-001	  9.36980E-001	  8.97603E-001	  8.94513E-001	  8.58176E-001	  8.25962E-001	  8.21639E-001	  7.80819E-001
  5.12000E-002	  9.47268E-001	  9.32175E-001	  8.96472E-001	  8.89123E-001	  8.52691E-001	  8.17547E-001	  8.11678E-001	  7.69399E-001
  5.76000E-002	  9.45471E-001	  9.26076E-001	  8.89069E-001	  8.78428E-001	  8.40974E-001	  8.01895E-001	  7.91616E-001	  7.50461E-001
  6.40000E-002	  9.43751E-001	  9.22335E-001	  8.80515E-001	  8.66987E-001	  8.25430E-001	  7.86408E-001	  7.74722E-001	  7.31403E-001
  7.04000E-002	  9.42137E-001	  9.16409E-001	  8.72818E-001	  8.57048E-001	  8.10314E-001	  7.68675E-001	  7.55513E-001	  7.11841E-001
  7.68000E-002	  9.37530E-001	  9.10974E-001	  8.64640E-001	  8.48520E-001	  7.99012E-001	  7.55838E-001	  7.40860E-001	  6.94176E-001
  8.32000E-002	  9.34947E-001	  9.07979E-001	  8.56880E-001	  8.37600E-001	  7.85664E-001	  7.41385E-001	  7.22344E-001	  6.76362E-001
  8.96000E-002	  9.33869E-001	  9.03163E-001	  8.52134E-001	  8.24033E-001	  7.73245E-001	  7.26180E-001	  7.05206E-001	  6.57678E-001
  9.60000E-002	  9.30656E-001	  8.99427E-001	  8.44054E-001	  8.16121E-001	  7.59020E-001	  7.11222E-001	  6.90145E-001	  6.41602E-001
  1.02400E-001	  9.28704E-001	  8.94091E-001	  8.37929E-001	  8.06437E-001	  7.50107E-001	  6.96452E-001	  6.74164E-001	  6.24660E-001
  1.15200E-001	  9.24184E-001	  8.84118E-001	  8.22658E-001	  7.87296E-001	  7.26915E-001	  6.69639E-001	  6.43654E-001	  5.92725E-001
  1.28000E-001	  9.18534E-001	  8.74332E-001	  8.08603E-001	  7.68856E-001	  7.02035E-001	  6.42704E-001	  6.14935E-001	  5.63020E-001
  1.40800E-001	  9.13891E-001	  8.64361E-001	  7.93835E-001	  7.50769E-001	  6.78593E-001	  6.17751E-001	  5.86626E-001	  5.35121E-001
  1.53600E-001	  9.09206E-001	  8.56382E-001	  7.80368E-001	  7.31767E-001	  6.57260E-001	  5.94569E-001	  5.60280E-001	  5.07348E-001
  1.66400E-001	  9.04006E-001	  8.46532E-001	  7.66686E-001	  7.16046E-001	  6.37530E-001	  5.72169E-001	  5.35011E-001	  4.82768E-001
  1.79200E-001	  8.99364E-001	  8.36584E-001	  7.52982E-001	  6.96610E-001	  6.17063E-001	  5.49649E-001	  5.10904E-001	  4.58198E-001
  1.92000E-001	  8.94555E-001	  8.29226E-001	  7.40399E-001	  6.79393E-001	  5.97383E-001	  5.27854E-001	  4.88606E-001	  4.34741E-001
  2.04800E-001	  8.90394E-001	  8.20063E-001	  7.27836E-001	  6.64533E-001	  5.79135E-001	  5.07690E-001	  4.67551E-001	  4.13450E-001
  2.30400E-001	  8.81345E-001	  8.02989E-001	  7.03847E-001	  6.32856E-001	  5.43152E-001	  4.68733E-001	  4.26540E-001	  3.73670E-001
  2.56000E-001	  8.72315E-001	  7.85842E-001	  6.79539E-001	  6.03002E-001	  5.09478E-001	  4.34217E-001	  3.89279E-001	  3.37598E-001
  2.81600E-001	  8.63033E-001	  7.69435E-001	  6.55991E-001	  5.74595E-001	  4.79539E-001	  4.01196E-001	  3.55546E-001	  3.04660E-001
  3.07200E-001	  8.54174E-001	  7.53931E-001	  6.33552E-001	  5.47527E-001	  4.50143E-001	  3.71860E-001	  3.26026E-001	  2.76122E-001
  3.32800E-001	  8.45558E-001	  7.37847E-001	  6.13438E-001	  5.20258E-001	  4.21409E-001	  3.43803E-001	  2.98337E-001	  2.49903E-001
  3.58400E-001	  8.36666E-001	  7.22059E-001	  5.91420E-001	  4.96968E-001	  3.96178E-001	  3.18838E-001	  2.73029E-001	  2.25557E-001
  3.84000E-001	  8.28084E-001	  7.07112E-001	  5.71644E-001	  4.74268E-001	  3.71874E-001	  2.94750E-001	  2.50061E-001	  2.04175E-001
  4.09600E-001	  8.19746E-001	  6.92686E-001	  5.52499E-001	  4.51984E-001	  3.48159E-001	  2.72263E-001	  2.30183E-001	  1.85623E-001
  4.60800E-001	  8.02976E-001	  6.64682E-001	  5.15376E-001	  4.10028E-001	  3.06352E-001	  2.32902E-001	  1.93302E-001	  1.52711E-001
  5.12000E-001	  7.86647E-001	  6.37155E-001	  4.80139E-001	  3.72686E-001	  2.70390E-001	  1.99550E-001	  1.63160E-001	  1.25075E-001
  5.63200E-001	  7.70775E-001	  6.11195E-001	  4.49100E-001	  3.38244E-001	  2.38824E-001	  1.70930E-001	  1.37546E-001	  1.02762E-001
  6.14400E-001	  7.55527E-001	  5.85449E-001	  4.19092E-001	  3.08238E-001	  2.10729E-001	  1.46053E-001	  1.15820E-001	  8.37420E-002
  6.65600E-001	  7.40086E-001	  5.61349E-001	  3.91536E-001	  2.80810E-001	  1.84996E-001	  1.24661E-001	  9.70210E-002	  6.89974E-002
  7.16800E-001	  7.25033E-001	  5.39226E-001	  3.65159E-001	  2.55838E-001	  1.63424E-001	  1.07071E-001	  8.12821E-002	  5.66190E-002
  7.68000E-001	  7.10191E-001	  5.17359E-001	  3.40709E-001	  2.33197E-001	  1.43160E-001	  9.10352E-002	  6.78430E-002	  4.74124E-002
  8.19200E-001	  6.96155E-001	  4.96242E-001	  3.18613E-001	  2.12872E-001	  1.26175E-001	  7.79052E-002	  5.70099E-002	  4.06007E-002
  9.21600E-001	  6.68827E-001	  4.57305E-001	  2.77657E-001	  1.76021E-001	  9.93256E-002	  5.65696E-002	  4.01816E-002	  2.95060E-002
  1.02400E+000	  6.42314E-001	  4.21708E-001	  2.41766E-001	  1.46368E-001	  7.88918E-002	  3.92874E-002	  2.73040E-002	  2.23781E-002
  1.12640E+000	  6.16756E-001	  3.88361E-001	  2.08944E-001	  1.22309E-001	  6.31883E-002	  2.54791E-002	  1.78345E-002	  1.65948E-002
  1.22880E+000	  5.92007E-001	  3.58317E-001	  1.81606E-001	  1.02577E-001	  5.01891E-002	  1.59225E-002	  1.15573E-002	  1.19861E-002
  1.33120E+000	  5.68192E-001	  3.30278E-001	  1.57468E-001	  8.69269E-002	  4.06859E-002	  9.94080E-003	  9.00308E-003	  7.75834E-003
  1.43360E+000	  5.45786E-001	  3.04414E-001	  1.37580E-001	  7.36561E-002	  3.15419E-002	  4.97466E-003	  7.99348E-003	  5.87957E-003
  1.53600E+000	  5.24376E-001	  2.80780E-001	  1.19753E-001	  6.15941E-002	  2.50245E-002	  2.18688E-003	  7.44744E-003	  4.45876E-003
  1.63840E+000	  5.03928E-001	  2.59152E-001	  1.05168E-001	  5.38785E-002	  2.15402E-002	 -6.57056E-004	  6.44920E-003	  3.55790E-003
  1.84320E+000	  4.64938E-001	  2.20542E-001	  8.15605E-002	  4.05880E-002	  1.50586E-002	 -6.76423E-003	  5.41165E-003	  1.68030E-003
  2.04800E+000	  4.29015E-001	  1.87684E-001	  6.28722E-002	  2.86529E-002	  1.00447E-002	 -1.03961E-002	  3.66018E-003	  5.76135E-004
  2.25280E+000	  3.95739E-001	  1.59563E-001	  4.64919E-002	  1.94090E-002	  6.73511E-003	 -7.60879E-003	  3.10496E-003	  6.35947E-004
  2.45760E+000	  3.65361E-001	  1.35566E-001	  3.43709E-002	  1.35073E-002	  4.14757E-003	 -5.42180E-003	  2.35335E-003	  1.20633E-003
  2.66240E+000	  3.37419E-001	  1.15348E-001	  2.49988E-002	  1.12477E-002	  1.76836E-003	 -5.45034E-003	  2.52752E-003	 -5.15609E-004
  2.86720E+000	  3.11114E-001	  9.80154E-002	  1.84058E-002	  1.04666E-002	  1.07475E-003	 -3.86407E-003	  2.94205E-003	 -2.57417E-003
  3.07200E+000	  2.87186E-001	  8.27642E-002	  1.25595E-002	  1.02423E-002	 -4.29631E-004	 -4.28889E-003	  2.98145E-003	 -2.60592E-003
  3.27680E+000	  2.66147E-001	  7.02366E-002	  7.31059E-003	  7.47683E-003	 -2.88551E-003	 -4.15055E-003	  2.41717E-003	 -7.45415E-004
  3.68640E+000	  2.27792E-001	  4.91268E-002	  1.77278E-003	  3.15627E-003	 -6.41565E-003	 -7.28022E-004	  3.87070E-003	  1.19920E-003
  4.09600E+000	  1.94274E-001	  3.40510E-002	 -3.80617E-004	  7.12526E-004	 -3.82472E-003	  2.94274E-003	  2.80311E-003	  3.38401E-003
  4.50560E+000	  1.65056E-001	  2.38158E-002	 -2.86554E-003	 -1.73702E-003	 -1.44410E-003	  1.27793E-003	  4.13472E-003	  2.66295E-003
  4.91520E+000	  1.41816E-001	  1.87997E-002	 -4.88255E-003	 -2.80123E-003	  2.64623E-003	 -4.57236E-004	  3.35361E-003	  1.20729E-003
  5.32480E+000	  1.22062E-001	  1.54615E-002	 -5.06318E-003	 -2.45969E-003	 -2.04136E-004	  6.81169E-004	  3.28683E-003	 -1.40403E-003
  5.73440E+000	  1.06174E-001	  1.31410E-002	 -3.91572E-003	 -3.41116E-003	 -5.71639E-003	 -3.32050E-003	  3.53494E-004	 -1.25966E-003
  6.14400E+000	  9.27117E-002	  1.04500E-002	 -2.33190E-003	 -4.43555E-003	 -7.02473E-003	 -1.81455E-003	  1.05392E-003	 -5.00167E-003
  6.55360E+000	  8.08708E-002	  8.84204E-003	 -2.64501E-003	 -2.12380E-003	 -3.87086E-003	  2.53223E-004	  7.99429E-004	 -9.56911E-004
  7.37280E+000	  6.08951E-002	  3.17809E-003	 -3.11959E-004	  2.61681E-003	 -3.62720E-003	  2.70990E-003	  1.06127E-003	  2.81177E-003
  8.19200E+000	  4.59129E-002	 -1.79975E-004	  4.86585E-003	  5.02888E-003	 -2.16910E-003	  3.95288E-003	  5.74051E-003	 -1.56066E-003
  9.01120E+000	  3.43542E-002	 -2.30920E-003	  7.08625E-003	  7.49359E-003	  2.34860E-004	  4.12991E-003	  2.70239E-003	 -3.68950E-003
  9.83040E+000	  2.38539E-002	 -4.78702E-003	  7.37949E-003	  6.82196E-003	  1.91006E-004	  6.21171E-003	  2.54189E-003	 -3.13614E-004
  1.06496E+001	  1.60954E-002	 -6.76403E-003	 -4.10735E-003	  3.65661E-003	  1.08027E-003	 -2.43379E-003	  2.46188E-003	  4.17041E-003
  1.14688E+001	  9.34833E-003	 -5.13176E-003	 -5.83327E-003	  6.46640E-003	  3.86232E-003	 -4.91875E-003	 -3.94136E-004	  4.35787E-004
  1.22880E+001	  2.58209E-003	 -4.15636E-003	 -7.26323E-003	  8.74628E-003	  9.29853E-005	 -1.94367E-003	 -5.63833E-004	 -7.69249E-004
  1.31072E+001	 -3.78861E-003	 -6.37327E-003	 -5.23263E-003	  5.62912E-003	  3.15836E-003	 -1.54465E-003	  1.70608E-003	  1.79172E-003
  1.47456E+001	 -1.32315E-002	 -8.53284E-003	  2.77608E-003	  3.14165E-003	  1.24131E-003	  2.64293E-004	  4.00625E-004	  7.44517E-004
  1.63840E+001	 -1.37984E-002	 -1.26656E-002	 -3.29448E-003	  4.52850E-003	  7.14378E-003	  3.09666E-004	 -1.84899E-003	 -2.05245E-003
  1.80224E+001	 -9.78760E-003	 -1.00613E-002	 -2.60812E-003	  2.05590E-004	 -3.84405E-003	 -2.32805E-003	 -2.43540E-003	 -1.98992E-003
  1.96608E+001	 -6.73672E-003	 -8.88384E-003	  6.60540E-003	  8.66978E-004	 -6.34372E-003	  2.10009E-003	  1.45640E-003	 -9.99415E-004
  2.12992E+001	 -6.91107E-003	 -1.16864E-002	  6.02218E-005	 -2.39978E-003	 -4.39865E-003	  6.92951E-003	  2.13142E-003	 -4.00052E-004
  2.29376E+001	 -9.11485E-003	 -1.10999E-002	 -1.58899E-004	 -2.23573E-003	 -2.24752E-003	 -1.46749E-003	 -3.50234E-003	 -5.85800E-004
  2.45760E+001	 -1.17477E-002	 -1.92022E-002	 -7.14662E-003	 -3.20829E-003	  1.08648E-003	 -2.62142E-003	 -4.32641E-004	 -4.31207E-003
  2.62144E+001	 -1.14651E-002	 -1.30032E-002	 -6.01277E-003	 -1.99228E-003	 -1.17007E-003	 -1.45649E-003	  1.56880E-003	 -2.93796E-003
  2.94912E+001	 -6.19597E-003	 -7.31649E-003	  6.88197E-004	 -2.72776E-003	  3.89305E-003	  2.93155E-003	 -3.48377E-004	 -1.80504E-003
  3.27680E+001	  1.93062E-003	 -8.48452E-003	 -1.87544E-003	 -1.74563E-004	 -2.77502E-003	 -1.62062E-003	  1.37007E-003	 -3.48116E-004
  3.60448E+001	  2.51255E-003	 -5.01028E-003	 -1.48624E-004	  2.68654E-003	 -1.19895E-003	  1.75703E-003	 -2.39896E-003	  1.31593E-003
  3.93216E+001	 -5.49183E-003	 -9.48141E-003	 -1.91120E-003	  3.28913E-004	 -2.83347E-003	  2.32527E-003	 -1.03206E-003	  8.88763E-004
  4.25984E+001	  3.57960E-003	 -8.82160E-003	 -4.59245E-003	  2.32037E-003	 -2.60841E-003	 -9.50161E-004	 -1.10799E-003	 -1.21309E-003
  4.58752E+001	 -2.84545E-003	 -6.01676E-003	 -2.39748E-003	  2.20352E-003	 -2.93030E-004	 -3.36993E-004	 -1.53100E-003	 -9.47501E-004
  4.91520E+001	 -5.02102E-003	 -5.73483E-003	 -5.59877E-004	  7.35522E-004	  4.40027E-003	 -5.02557E-004	  1.40663E-003	 -2.29007E-003
  5.24288E+001	 -9.96971E-003	 -5.03879E-004	  9.63540E-004	  1.20592E-003	 -1.13592E-003	  1.74746E-003	  1.70887E-003	  1.05340E-003
  5.89824E+001	 -8.15638E-003	  1.50014E-003	  3.22533E-003	  1.67844E-003	 -2.60875E-003	  1.13539E-004	  1.01652E-004	 -1.72668E-003
  6.55360E+001	 -2.64094E-003	  4.79602E-003	 -2.57578E-003	 -3.78844E-003	  4.15994E-004	  1.20728E-003	 -1.60472E-004	  1.53958E-004
  7.20896E+001	  7.50211E-003	 -2.20762E-003	 -4.41671E-003	 -5.89069E-004	  6.37021E-004	  7.00854E-004	  6.78786E-004	 -4.89254E-005
  7.86432E+001	  4.12869E-003	 -6.04363E-003	 -3.35937E-003	 -1.20222E-003	 -2.77391E-003	  3.75216E-004	 -1.91779E-003	 -2.05709E-003
  8.51968E+001	  8.77457E-003	 -2.24746E-003	 -3.35921E-003	 -1.42698E-004	  2.72484E-003	  2.58107E-004	 -4.89796E-005	  1.52767E-003
  9.17504E+001	  7.28542E-003	 -3.87940E-004	 -1.09762E-003	  1.26473E-003	 -9.19898E-004	  1.40912E-003	  1.91225E-003	 -1.53384E-003
  9.83040E+001	  1.82775E-002	  4.06517E-003	 -1.45365E-003	  1.23422E-003	 -3.12669E-003	  8.77683E-004	  1.73548E-003	 -1.60904E-003
  1.04858E+002	  7.76941E-003	  2.56321E-003	  1.98627E-004	  2.73364E-003	 -3.98434E-003	  2.70029E-004	  1.04889E-003	 -1.16782E-003
  1.17965E+002	  1.34690E-003	  1.63774E-003	 -2.34840E-003	 -1.87936E-003	  5.05476E-006	 -4.66103E-004	 -1.90552E-003	  2.98513E-004
  1.31072E+002	  2.11782E-003	 -1.94345E-003	 -3.81739E-003	  1.02200E-003	 -7.77241E-005	  7.04135E-004	 -1.05991E-003	  2.46442E-004
  1.44179E+002	 -7.01951E-004	 -4.73982E-004	 -3.43890E-004	 -1.00262E-003	 -1.79696E-003	 -9.07087E-005	  3.98931E-005	 -2.04358E-003
  1.57286E+002	  3.64189E-003	  5.62697E-004	  5.67516E-004	 -1.30788E-003	 -5.32018E-004	  1.84037E-004	 -6.06411E-004	 -3.10226E-004
  1.70394E+002	  6.35227E-003	  4.66118E-003	 -4.38795E-004	 -3.76981E-003	 -1.96533E-003	 -4.97048E-004	  5.10385E-004	  1.33870E-003
  1.83501E+002	  4.37720E-003	  5.73639E-004	  4.21493E-003	 -4.03843E-004	 -1.68613E-004	 -8.92779E-004	 -1.02588E-003	 -6.30054E-004
  1.96608E+002	  7.50955E-004	 -7.07695E-003	 -8.33479E-004	 -4.48478E-004	  9.62176E-004	 -1.33484E-003	  5.25452E-004	  2.54019E-004
  2.09715E+002	  5.85554E-003	 -2.21758E-003	 -1.76370E-004	 -8.72255E-004	  1.84155E-003	 -1.04944E-003	 -5.24520E-005	 -9.65702E-004
  2.35930E+002	  8.36865E-003	 -1.88771E-003	 -1.76509E-003	 -4.08641E-004	 -5.87656E-004	  3.40831E-004	 -3.16422E-004	  6.13026E-004
  2.62144E+002	 -1.08755E-002	  2.78610E-003	  2.86961E-004	  1.47897E-003	 -1.40046E-003	 -3.46644E-004	  5.59564E-004	 -2.19634E-005
  2.88358E+002	 -1.84240E-003	  3.14297E-003	  3.70556E-004	 -3.72559E-004	  7.39696E-004	  4.63098E-004	 -1.46547E-003	 -9.93315E-004
  3.14573E+002	  8.38688E-003	 -3.32986E-003	 -5.34050E-004	  5.29512E-004	  1.29296E-003	 -5.74066E-004	  5.09435E-005	  1.68644E-004
  3.40787E+002	 -3.66118E-003	 -6.41752E-004	 -8.24058E-004	  2.93097E-003	 -3.00370E-005	  5.04314E-005	  2.88921E-004	  9.26427E-004
  3.67002E+002	 -2.17089E-003	  2.01739E-003	  5.04507E-004	  1.66746E-003	  2.07244E-003	 -2.49745E-004	 -6.10238E-004	  7.86209E-004
  3.93216E+002	  1.09542E-002	  4.77248E-004	 -9.30848E-004	  2.86901E-004	 -1.01737E-003	  1.66066E-004	  2.02531E-005	 -2.20381E-004
  4.19430E+002	 -2.68701E-003	  6.14579E-004	 -5.43204E-004	 -7.46669E-004	 -1.01050E-004	 -4.02393E-004	 -3.56566E-004	 -1.67148E-004
  4.71859E+002	  5.26478E-003	  2.80302E-004	  1.04479E-004	 -1.35134E-003	 -1.53114E-003	 -7.60526E-005	 -4.39354E-004	 -1.44353E-004
  5.24288E+002	  2.96730E-003	  1.68338E-003	 -5.94148E-004	 -1.16886E-003	 -1.24315E-003	 -3.63662E-004	 -6.36931E-004	  7.71186E-004
  5.76717E+002	  8.22606E-004	 -1.67520E-003	  2.94191E-003	  5.70816E-004	  3.18656E-004	  1.40979E-005	 -3.33385E-004	  9.74268E-005
  6.29146E+002	 -4.02258E-004	 -1.87820E-003	 -3.02599E-003	 -3.69392E-004	  5.31054E-004	  6.86986E-004	 -2.63444E-005	 -3.19847E-004
  6.81574E+002	 -2.48209E-003	 -1.00894E-003	  2.68479E-004	 -4.59945E-004	  4.76801E-004	  1.55593E-004	 -1.42926E-004	 -3.88173E-004
  7.34003E+002	 -7.67562E-003	  4.71492E-004	 -5.24951E-004	 -3.91757E-004	  4.42924E-004	  3.79293E-004	  1.90657E-004	  7.00045E-004
  7.86432E+002	 -4.72921E-003	  1.01755E-003	 -1.34563E-003	 -1.17153E-003	 -4.06929E-006	 -1.91079E-004	  7.14307E-004	 -4.56847E-004
  8.38861E+002	  3.87742E-003	 -1.65831E-003	  8.01128E-004	 -1.15122E-003	 -1.40747E-004	 -2.65557E-004	 -2.04125E-004	 -5.82660E-005
  9.43718E+002	 -9.89212E-004	 -1.64624E-003	  5.99096E-004	  1.37086E-005	  6.02637E-004	 -4.66576E-005	 -8.48993E-005	 -1.47895E-004
  1.04858E+003	  6.81441E-004	 -1.35135E-003	  1.09818E-003	 -6.10743E-004	  2.21676E-004	  4.37222E-004	  1.86941E-006	  6.42800E-005
  1.15343E+003	 -1.62135E-003	  1.20358E-003	 -2.14314E-004	 -1.14990E-003	  5.31002E-004	  5.30593E-004	 -8.85770E-005	 -9.81970E-005
  1.25829E+003	  3.85247E-004	 -6.43594E-004	 -1.85699E-004	  5.81755E-004	  1.62020E-004	  6.64617E-005	  3.49150E-004	 -6.01078E-005
  1.36315E+003	  2.38716E-003	  1.53926E-003	  1.10518E-003	  4.38040E-004	 -7.89182E-004	  9.52384E-005	  1.96943E-004	 -2.66803E-004
  1.46801E+003	  4.55771E-003	 -4.45093E-004	 -4.54635E-004	 -5.47642E-004	 -7.26898E-004	 -1.00596E-004	  4.93985E-005	  3.86047E-004
  1.57286E+003	 -2.93121E-003	 -1.86945E-003	  9.84704E-004	  9.79272E-004	  5.00724E-004	  2.31867E-004	  3.56217E-004	 -4.77030E-004
  1.67772E+003	 -2.76679E-004	  3.74834E-004	 -1.32665E-004	  8.58055E-004	  1.01556E-004	 -2.18424E-004	 -8.02098E-006	 -3.16205E-004
  1.88744E+003	  1.92094E-003	 -8.73464E-004	 -3.31128E-004	 -4.44276E-004	 -1.29304E-004	  1.22701E-004	 -3.41046E-004	 -3.78795E-005
  2.09715E+003	  2.89930E-003	 -2.48970E-004	 -4.63792E-005	 -6.78632E-004	  2.26490E-004	 -7.45513E-005	 -4.45553E-004	  1.45813E-004
  2.30687E+003	  4.13433E-003	 -5.73804E-004	 -2.38706E-004	  5.41814E-004	 -2.42587E-004	  5.83352E-005	  1.83467E-004	 -6.12904E-005
  2.51658E+003	 -5.90633E-004	  1.38090E-003	 -4.46725E-004	 -9.46898E-005	  9.52009E-005	  4.02129E-004	  3.01787E-004	  1.54678E-005
  2.72630E+003	  1.10504E-005	  2.47640E-005	  6.77513E-004	 -8.57849E-004	  4.03856E-004	  2.12493E-004	 -9.17478E-005	  2.35254E-004
  2.93601E+003	 -5.44045E-004	  5.46828E-004	  5.18723E-004	  2.33431E-004	 -2.86628E-004	  1.23585E-004	 -5.87012E-004	 -4.73169E-005
"Count Rate"
       0.11679	     270.40973	     136.18143	      94.74789	      88.12943	      82.43211	      95.90782	     105.79285	     142.68047
       0.23357	     214.40025	      99.68613	      97.89506	      79.60050	      75.49809	      98.04005	     107.23424	     139.08980
       0.35036	     183.78139	     104.30029	     110.35583	     107.15748	      82.27859	      96.14663	     105.75874	     138.45865
       0.46714	     186.39977	     158.23724	     106.04019	      89.43436	      75.93307	      89.52818	     107.04660	     141.12820
       0.58393	     158.20313	     135.88292	     109.54558	      83.36176	      80.29988	     101.50280	      92.96534	     154.40775
       0.70072	     199.34668	     136.42877	     120.25791	      93.26385	      86.23602	      99.61790	     106.78220	     123.95094
       0.81750	     207.64534	     134.96179	     117.49454	      90.83311	      80.37664	     104.41969	     113.32390	     121.64813
       0.93429	     189.35931	     106.42399	     110.05731	      82.97796	     101.83543	      88.91409	     102.58597	     117.30691
       1.05107	     251.18552	     124.24945	     114.40707	      91.85658	      81.54510	      90.67106	     103.47298	     146.66348
       1.16786	     145.84471	     130.15147	     100.44521	      96.07840	      83.66028	      97.51979	     102.62009	     132.22400
       1.28465	     247.10016	     160.88974	     131.50757	      93.70735	      82.50887	      94.79053	     104.40263	     122.64602
       1.40143	     132.96602	     102.90154	     109.05943	      86.23602	      80.63251	     108.01890	     101.59662	     125.15352
       1.51822	     196.71124	     152.25845	     110.22789	      85.94603	      86.09102	     100.47932	      89.81816	     135.16649
       1.63500	     208.48117	     110.96991	     111.10638	      82.29565	      75.41280	     105.11053	      97.16158	     118.27921
       1.75179	     171.75560	     137.23048	     101.95483	      80.61545	      83.31059	      87.89915	     101.39192	     130.69733
       1.86858	     210.78398	     114.73970	     118.98711	      80.17194	      87.59211	      96.87159	     107.78009	     133.64833
       1.98536	     162.16055	     127.98512	     109.11060	      93.90352	      76.40215	     103.14035	     107.95920	     122.16840
       2.10215	     187.29530	     131.22612	     112.34307	     100.35139	      88.00150	     102.79919	      91.33631	     134.94473
       2.21894	     238.56270	     135.58440	     109.99761	     108.11272	      92.01010	      97.01658	      95.31079	     125.89554
       2.33572	     206.11012	     107.38776	     119.11504	      77.51092	      71.77095	      93.18709	     116.75253	     145.90440
       2.45251	     244.84000	     137.88721	     128.13864	      93.76706	      75.54926	      92.24038	     105.23847	     133.78481
       2.56929	     200.53221	     145.56325	     112.63305	     105.73315	      78.00559	      83.99290	     111.31107	     145.92999
       2.68608	     208.71997	     116.38578	     107.57539	      77.67297	      83.65175	      94.33849	     103.14035	     133.29012
       2.80287	     148.97482	     125.04265	     114.92733	      94.68818	      75.14841	      98.96970	     103.65208	     135.39676
       2.91965	     172.60849	     127.98512	     114.27914	      93.18709	      87.19978	      98.39827	      93.75000	     141.75935
       3.03644	     203.51733	      97.49420	     129.37534	      92.59859	      81.58775	      93.89499	      97.61360	     125.26440
       3.15322	     196.49802	     131.22612	     128.37746	      87.89063	      73.39144	     102.99536	     104.40263	     141.14526
       3.27001	     157.12848	     146.27968	     130.05766	      93.91205	      81.16983	      94.82465	     100.80343	     130.76556
       3.38680	     140.72734	     151.99406	      99.46439	      84.23171	      88.05267	      97.54537	      93.51119	     123.65243
       3.50358	     127.81454	     114.59470	     106.59457	     100.21493	      81.37452	      89.83522	     113.22155	     132.46281
       3.62037	     220.25110	     128.12158	     120.92317	      94.34702	      93.08474	     103.98472	     104.84614	     126.24522
       3.73715	     199.73901	     158.27136	     106.73103	      65.39130	      77.69855	     105.71609	     111.25137	     137.75075
       3.85394	     168.69371	     157.75110	     111.95927	      89.49406	      74.90106	     109.83556	     108.55622	     129.11948
       3.97073	     196.17392	     136.55670	     105.91225	      83.08884	      78.38087	      92.46214	     100.18082	     136.11319
       4.08751	     185.85391	     116.00198	     119.61825	      78.38087	      83.98438	      92.56448	      99.83113	     125.76760
       4.20430	     164.74481	     125.35822	     104.36852	      86.38953	      80.98219	      97.70742	     113.74181	     140.98322
       4.32108	     197.64943	     139.27744	      97.09334	      71.72830	      81.41717	      84.47053	     110.50935	     121.89547
       4.43787	     170.70654	     108.99120	     107.49010	     108.04449	      78.02265	      94.48349	      98.80766	     126.19405
       4.55466	     253.86360	     134.11743	     112.92303	      89.76699	      89.49406	      99.15734	     107.76303	     145.75089
       4.67144	     257.38605	     126.20258	     108.49652	     101.69896	      79.17406	      91.60924	      89.64758	     127.48192
       4.78823	     245.46262	     126.59491	     114.38148	     111.59252	      72.81148	     104.42822	     121.46902	     131.01289
       4.90501	     162.70641	     128.05336	     106.70544	      91.85658	      97.34068	      96.88865	     114.01474	     136.10466
       5.02180	     242.97217	      91.17426	      92.24891	     101.14458	      78.40646	      85.53664	     103.92501	     139.14096
       5.13859	     185.59805	     122.75689	     112.93156	      79.08877	      87.83092	      98.50914	      90.36401	     145.57178
       5.25537	     231.07431	     132.92337	      95.49843	      84.53876	      82.74768	      99.48144	     113.17037	     131.74638
       5.37216	     214.17850	     118.18539	     114.81646	      73.33174	      66.14185	      95.02081	     104.42822	     131.08113
       5.48894	     191.67065	     141.89581	     112.06161	      93.65618	      78.94378	     102.97830	      95.66048	     129.46916
       5.60573	     208.80527	     126.10876	      87.46418	      73.12704	      90.08256	      89.00791	     107.23424	     131.60139
       5.72252	     191.41478	     122.89336	     107.93361	     102.46657	      76.48744	      85.33195	      98.90147	     140.34355
       5.83930	     161.77675	     120.35173	      84.24024	      86.28719	      75.14841	      93.75000	     103.39622	     137.46930
       5.95609	     148.27545	     143.14104	     140.27531	      78.79026	      81.96302	      93.40884	     122.69719	     136.38612
       6.07287	     185.99039	     117.63953	     111.08932	      81.78391	      84.90550	      87.52388	      86.96097	     123.26010
       6.18966	     205.24870	     131.26024	      96.88012	      92.49625	      85.56223	      90.23608	      92.70947	     123.55861
       6.30645	     247.01488	     147.38844	     102.73949	      95.87370	      78.37234	      92.95681	     104.07854	     144.03658
       6.42323	     265.90646	     128.65038	     101.29810	      87.12302	      75.46397	      88.82880	      92.43655	     133.83597
       6.54002	     248.69507	     141.18791	     111.39635	      87.79681	      74.02258	     101.43456	      99.53262	     137.30725
       6.65680	     173.25668	     122.49249	      94.90141	     100.44521	      80.77750	     104.78644	     101.06783	     142.43314
       6.77359	     136.28377	     120.18115	     105.88667	      92.64977	      80.72633	      95.80547	     107.70333	     120.74406
       6.89038	     200.69426	     130.30499	     109.29824	      88.38530	      80.97366	      93.05063	     109.61381	     127.70367
       7.00716	     239.49236	     147.62726	     106.33870	     101.08488	      79.08877	      97.11893	     102.52627	     130.44145
       7.12395	     185.39336	     159.20100	      98.59443	      99.87377	      91.95892	      87.00362	      95.43020	     140.70177
       7.24074	     193.80289	     156.08795	     114.56912	      91.54101	      79.81373	     105.24700	      93.24680	     126.62903
       7.35752	     170.28009	     163.45694	      84.68375	      88.70940	      82.21889	      97.57096	     105.52845	     141.47789
       7.47431	     219.92699	     144.96623	     117.43484	      91.72012	      79.81373	      88.47912	      97.34068	     135.95114
       7.59109	     192.23355	     119.52443	     116.94869	      78.12500	      70.96923	      89.38319	     102.49216	     127.14929
       7.70788	     208.26794	     138.58658	     101.83543	     106.53487	      79.60903	      88.47912	      99.47292	     135.03854
       7.82467	     188.95845	     120.26644	     100.17229	      77.37445	      91.31925	     106.04019	     113.81857	     127.49898
       7.94145	     140.16444	     132.83809	     110.00614	     105.23847	      85.16137	      83.13148	      97.19569	     133.49481
       8.05824	     154.87685	     109.80997	     118.59477	      94.61995	      72.86265	     104.40263	     108.12125	     127.04694
       8.17502	     225.47932	     121.51167	     109.13619	      88.76057	      85.80956	      98.54326	     106.50075	     146.85965
       8.29181	     250.27292	     161.91321	     111.27695	      84.98226	      67.54913	      91.83952	     110.64581	     135.81468
       8.40860	     149.59743	     124.32622	     115.49877	      96.12957	      79.89049	     100.28316	     106.33017	     142.93634
       8.52538	     233.23212	     128.39452	     111.78016	      87.70299	      83.93320	      91.87363	      93.75000	     117.52866
       8.64217	     214.39172	      93.64765	     118.09157	      91.69453	      77.79237	      96.70954	     114.55206	     154.70627
       8.75895	     162.74904	     151.38850	     108.53064	      73.14410	      74.50874	     108.99120	     116.16403	     121.18757
       8.87574	     132.25812	     141.76788	     111.31960	      89.19555	      91.81393	      90.18491	      89.35760	     132.97455
       8.99253	     155.61034	     122.04046	     102.46657	      79.32758	      91.59218	      92.94828	      95.57519	     143.55894
       9.10931	     169.62337	     155.85767	     117.91246	      76.25716	      85.17843	      91.31925	      96.46220	     122.39014
       9.22610	     218.40031	     126.41580	      97.95477	      92.20626	      83.86497	      90.21902	     120.67583	     130.16853
       9.34288	      85.86927	     113.85269	     111.41341	      78.44057	      82.45770	      90.59430	     103.14035	     137.46077
       9.45967	     158.20313	     100.07847	     125.86142	      90.14227	      75.93307	     110.87609	     125.28146	     137.01726
       9.57646	     170.48479	     159.26071	      96.01869	      94.33849	      89.80963	     101.56250	      99.66055	     129.07683
       9.69324	     216.54100	     128.27512	     117.37514	      93.00798	      77.01624	      91.16573	     103.30240	     145.29033
       9.81003	     190.25484	     117.42631	     110.82492	      94.08263	      79.08024	      95.60931	     101.40898	     129.57150
       9.92681	     181.84532	     133.21336	     110.04026	      89.08468	      75.53220	      87.46418	      91.66042	     136.23260
      10.04360	     240.81435	     127.37957	     108.60740	      93.05916	      94.25320	      89.69876	     112.87186	     128.61627
      10.16039	     198.07587	     130.31352	      99.84818	      87.52388	      79.77961	     105.66492	      98.18504	     139.93416
      10.27717	     160.23302	     131.75491	     116.88046	      84.97373	      67.88175	     105.10201	      91.31072	     129.24741
      10.39396	     190.08426	     127.19193	      99.92494	      86.19337	      84.19760	      95.08051	      98.02299	     139.97681
      10.51074	     173.88783	     118.76535	      80.93954	      93.01651	      77.98854	      94.09969	      96.93982	     137.40959
      10.62753	     182.03296	     155.88326	     109.04237	      78.78173	      98.74796	     100.60726	     102.27040	     130.02354
      10.74432	     168.36961	     100.38551	      93.12739	      88.54736	      77.61327	      95.36197	     110.79080	     144.84682
      10.86110	     246.37520	     132.19841	     116.86340	      90.46636	      80.83720	     105.12759	     113.07655	     121.04258
      10.97789	     170.89418	     122.87630	     105.95490	      80.49604	      82.98649	      88.70940	      98.33856	     134.74857
      11.09467	     187.40619	     140.88940	     112.68423	      86.45776	      77.18682	     101.81837	     119.44767	     125.65673
      11.21146	     189.45313	     113.63947	     129.80179	      89.55376	      88.02708	     101.33222	     106.21077	     135.53323
      11.32825	     192.07150	     145.49503	     107.92508	      86.82451	      85.07608	     102.46657	     100.67549	     133.55452
      11.44503	     209.73492	     119.15768	     119.08092	      90.88428	      90.21902	      95.66048	     105.29817	     130.81673
      11.56182	     155.49092	     121.56284	     105.32376	      94.74789	      87.49829	      87.94180	     104.16383	     133.97243
      11.67861	     155.34593	     148.71895	     105.98901	     106.91867	      97.23833	      91.05486	      95.47285	     121.98929
      11.79539	     215.03139	     123.78036	     125.35822	      86.70510	      77.11858	      97.56243	     105.28111	     133.13660
      11.91218	     197.57266	     116.17255	     102.65421	      79.14847	      77.64738	      94.11674	     115.66082	     128.65891
      12.02896	     158.27136	     179.82396	     113.72475	     108.55622	      81.75832	     106.37282	      97.84389	     133.63127
      12.14575	     264.75504	     173.41873	     106.22782	      76.83714	      86.67099	     106.68839	     104.51351	     143.51631
      12.26254	     178.32288	     111.69487	     109.86967	      83.89909	      84.66669	      89.99727	     108.42829	     139.94269
      12.37932	     226.04224	     135.11531	      99.07205	      89.96316	      81.64745	      99.83113	     112.70981	     124.30916
      12.49611	     178.90283	     123.82301	     108.30888	      79.02054	      75.47250	     105.90372	      96.00164	     149.11981
      12.61289	     225.22346	     134.60358	     123.43921	      84.28289	      88.07826	      97.86095	     102.82478	     139.19214
      12.72968	     207.06537	     109.48588	     111.54988	      96.50484	      78.76467	      84.54729	      91.75423	     141.58878
      12.84647	     229.82056	     138.51836	     116.36019	      85.94603	      78.57703	     105.20435	     101.79278	     126.20258
      12.96325	     269.67624	     124.30916	     106.21930	      96.72659	      78.96084	     101.47721	     104.22353	     136.32642
      13.08004	     125.75907	     120.30909	     128.71861	      91.32778	      73.16969	     103.12329	     100.25758	     134.65475
      13.19682	     186.90297	     113.83563	     105.52845	      84.37671	      78.84143	      98.44091	     111.45606	     133.17924
      13.31361	     160.62534	     139.62712	      97.19569	      96.91423	      89.57082	     111.23431	      99.67760	     136.24113
      13.43040	     175.26099	     133.44363	     106.73103	      76.22305	      85.34901	      98.79060	     102.89301	     155.06448
      13.54718	     201.81154	     150.75737	      99.96759	     102.11688	      78.50027	     101.54544	      93.98028	     126.85078
      13.66397	     211.79039	     125.11088	     120.06175	      85.91191	      91.81393	     101.44309	     107.71186	     133.55452
      13.78075	     202.67297	     161.93027	      99.36204	      80.07813	      62.08208	      90.77341	      99.38763	     145.62296
      13.89754	     170.80888	     134.79121	     107.25130	      71.84771	      81.07601	      92.11244	     119.38796	     137.63988
      14.01433	     230.81844	     132.28371	     124.62473	      78.77320	      81.77538	      95.75430	      93.72441	     131.41376
      14.13111	     169.51248	     121.59695	     114.12561	      72.25710	      82.85003	      83.46411	     110.47523	     144.59096
      14.24790	     171.50826	     122.81660	      97.63066	      84.24877	      69.70695	     104.90584	      95.98458	     138.18573
      14.36468	     174.86012	     114.40707	     113.68211	      94.26173	      90.88428	      96.66689	     102.55186	     134.79974
      14.48147	     171.09033	     136.48846	      94.31291	      91.77982	      90.09962	      96.87159	      90.61135	     141.28172
      14.59826	     144.65065	     172.81319	     129.86150	      82.72209	      80.29135	      92.59007	     116.00198	     124.76972
      14.71504	     164.64247	     168.35255	     120.85494	      85.63898	      90.65400	     101.14458	      94.26173	     135.08972
      14.83183	     145.83618	     146.41614	     113.63094	      94.03999	      73.86053	      87.63476	      94.71377	     131.57581
      14.94861	     253.78685	     132.72720	     107.84832	      91.14014	      80.32546	      97.86948	     102.07423	     119.59266
      15.06540	     224.34497	     157.21378	      88.55589	      87.83092	      79.54933	      86.21896	     111.28548	     119.60972
      15.18219	     247.25368	     146.62083	     138.59511	      92.25744	      76.70920	      86.73922	     107.49010	     124.70148
      15.29897	     255.03207	     120.65878	     104.19794	      98.56885	      82.79885	      99.19999	     116.14697	     133.55452
      15.41576	     174.77484	     127.66956	      94.80759	      95.19992	      69.73254	      96.03575	     105.20435	     135.95114
      15.53254	     164.84717	     134.00655	     124.50533	      83.37882	      74.60255	      80.26576	     101.76720	     129.65680
      15.64933	     197.35092	     127.43075	      95.08051	      80.15488	      95.19992	      86.40659	     115.88258	     126.33051
      15.76612	     225.28316	     121.44344	     109.07648	      81.42570	      83.30206	      97.67331	      97.07629	     152.29257
      15.88290	     170.27156	     152.38640	     121.17904	      86.01426	      69.64724	      87.00362	     102.27040	     138.26248
      15.99969	     141.69965	     138.24542	     112.71834	      93.19562	      89.28937	      92.61565	      97.10187	     139.84886
      16.11647	     181.47005	     111.54135	      97.54537	     106.85896	      73.55349	      93.95470	     120.68436	     129.93825
      16.23326	     249.73560	     155.98560	     107.04660	      85.61340	      66.17597	     101.24693	     105.90372	     133.51187
      16.35005	     182.47646	     136.54817	     107.94214	      81.57922	      88.61559	      95.31079	     116.59901	     125.69084
      16.46683	     177.21411	     107.92508	      80.36811	      92.15509	      74.19316	     106.96131	     109.97202	     137.71663
      16.58362	     182.97966	     151.26057	     120.47967	      91.21691	      85.38312	     104.79497	      98.48356	     131.90843
      16.70041	     134.55240	     113.92945	     106.73103	      86.61128	      84.41935	      78.90113	      98.35562	     138.45012
      16.81719	     189.22284	     137.43518	     122.19398	     103.20006	      83.11443	     104.47939	     114.91028	     141.36702
      16.93398	     136.71875	     115.24290	     104.45380	      90.95251	      85.34901	      82.24448	     103.11477	     141.22203
      17.05076	     214.41730	     116.60754	     111.45606	      86.53452	      80.59839	      86.77334	     114.12561	     136.27525
      17.16755	     184.21635	     143.43102	     114.73970	      96.02722	      84.99932	     102.67126	     103.89090	     131.54169
      17.28433	     167.01350	     131.44788	     103.59238	      91.72865	      93.83529	      92.07833	     100.30022	     131.49904
      17.40112	     250.34116	     120.29203	     117.61395	      93.23827	      74.99488	      90.27872	      98.87589	     141.97256
      17.51791	     175.39745	     124.11299	     113.83563	      70.62807	      78.55997	      97.77566	     104.75232	     126.35610
      17.63469	     255.35617	     153.55486	     107.54981	      86.67952	      96.57307	      96.58160	     119.54148	     117.21309
      17.75148	     198.23793	     151.03882	     105.00819	      98.60296	      80.21458	      97.86948	     107.79715	     158.74898
      17.86827	     200.94159	     157.07730	      91.72865	      75.83925	      80.89690	      89.16144	     104.53909	     130.81673
      17.98505	     143.06427	     115.15762	     117.92952	      82.38094	      80.70927	      87.43859	     117.23015	     122.39014
      18.10184	     196.91594	     133.30717	     103.66061	      83.90762	      75.05459	      84.17201	      93.06769	     133.48628
      18.21862	     161.17119	     164.56570	     102.12541	      91.63483	      88.40236	      92.68388	      89.06762	     133.43510
      18.33541	     189.02667	     118.80800	     106.70544	      91.17426	      80.72633	     101.32369	     114.77381	     143.78923
      18.45220	     196.24216	     140.12180	     108.39417	      73.84348	      87.28507	      76.84566	     101.93777	     131.47346
      18.56898	     180.27600	     131.42229	     133.46922	      85.18695	      76.35951	      82.74768	     109.53705	     120.47114
      18.68577	     165.91328	      94.63701	      92.65829	      95.69460	      87.31066	      90.28725	      97.03364	     143.63571
      18.80255	     158.97926	     128.87213	      94.72230	      71.64301	      75.66867	     111.57546	      97.36626	     147.89165
      18.91934	     233.12125	     112.19807	     110.52641	      83.77968	      81.06748	      98.39827	     113.16184	     134.62064
      19.03613	     161.80234	     159.49100	     101.91219	      99.48144	      82.15066	      95.49843	      98.05711	     134.10890
      19.15291	     125.29852	     131.43082	     102.45804	      80.94807	      75.71984	      88.09532	     110.55199	     128.75273
      19.26970	     274.98123	     119.59266	     110.11702	      87.23389	      70.44896	      93.60501	     102.34716	     132.25812
      19.38648	     136.14731	     123.02982	     103.75443	      85.87780	      85.22107	      99.00382	     105.22994	     137.34135
      19.50327	     278.00049	     140.39471	     131.37964	      82.01419	      79.85638	      88.54736	     100.18082	     134.80827
      19.62006	     196.19098	     149.03453	     105.69051	      87.92474	      80.18900	      95.54108	     114.30472	     157.98137
      19.73684	     146.52702	     151.82349	     127.96807	      92.71800	      71.10569	      81.10159	      99.11470	     131.57581
      19.85363	     124.45415	     117.96363	     104.95702	      83.66881	      80.82867	     104.47086	     105.71609	     121.81018
      19.97042	     166.94528	     109.50294	     110.39847	      79.84785	      95.46432	     104.60733	     121.13640	     141.40967
      20.08720	     212.09743	     142.45872	     116.71841	      97.58802	      80.23164	      88.72646	     111.79722	     137.56311
      20.20399	     239.39001	     183.45729	     120.40291	     102.79919	      81.00778	      92.96534	     122.35603	     127.29428
      20.32077	     178.40816	     115.08939	      92.10392	      79.02907	      83.28500	      95.07198	     102.80772	     131.06407
      20.43756	     236.25989	     161.37589	     111.82280	      89.84375	      71.40421	      92.41096	      97.06776	     147.03023
      20.55434	     177.83672	     144.32655	      91.48131	     109.13619	      77.72414	      90.02286	     108.80356	     130.94467
      20.67113	     220.63489	     121.43491	     108.60740	      76.81155	      76.86272	      91.18279	      82.76474	     132.80397
      20.78792	     185.32512	     133.29865	      98.01447	      80.56428	      81.64745	      85.45135	     101.44309	     134.18565
      20.90470	     217.12950	     161.75116	     129.91266	      96.66689	      82.36388	      99.63496	     106.68839	     132.94896
      21.02149	     198.16116	     124.02770	     107.90803	      90.87575	      83.74557	      94.69671	     108.98267	     127.39663
      21.13828	     117.12780	     106.76514	     119.67795	      75.13135	      83.59204	      97.57949	     107.15748	     118.35596
      21.25506	     202.74973	     140.98322	     109.92085	      86.39806	      76.23158	      90.61988	     111.26842	     143.57600
      21.37185	     126.90195	     125.41792	     129.23035	     100.09553	      79.64315	      96.67542	      99.55820	     138.84245
      21.48863	     144.37773	     136.24113	     130.55234	      91.67747	      92.52184	      86.03132	     109.64793	     135.58440
      21.60542	     181.93060	     117.78452	     101.30663	     104.49645	      70.98628	      96.91423	     105.99754	     134.65475
      21.72220	     169.82806	     126.54374	     113.42624	      85.19548	      84.80315	      91.02074	     123.19186	     134.30507
      21.83899	     186.05861	     143.16663	     120.90611	      96.40250	      84.15495	      96.44514	      93.97176	     130.29646
      21.95578	     202.60474	     148.49721	     105.99754	     112.04456	      83.19118	      86.12514	     103.28535	     134.94473
      22.07256	     174.19487	     119.47325	     114.50089	      82.50887	      87.39595	     101.14458	      89.83522	     144.82123
      22.18935	     205.66663	     120.62466	     114.93586	      81.71568	      75.24222	      97.28098	      95.80547	     111.01256
      22.30614	     190.59601	     124.43709	     113.82710	      63.85610	      79.58345	      98.12534	     109.29824	     141.29878
      22.42292	     218.84381	     113.42624	     110.24495	     100.34286	      76.93095	      98.14240	      94.51760	     145.88734
      22.53971	     180.46364	     118.46684	     109.03384	      82.03978	      83.69439	      89.08468	      98.81618	     130.61203
      22.65649	     162.74051	     118.15980	      90.51753	      80.67515	      88.25737	      96.87159	     112.46247	     127.89130
      22.77328	     182.39970	     107.42188	     117.75894	      86.86716	      81.19541	      90.31284	     107.65215	     125.52879
      22.89007	     175.44009	     179.68750	     130.78261	      83.93320	      78.04824	     101.09341	      97.48567	     134.42447
      23.00685	     141.50348	     135.59293	     113.21302	      90.56018	      80.65809	      84.55582	      91.13161	     136.47993
      23.12364	     199.60255	     164.01985	     103.62650	      90.72223	      69.95428	      93.23827	     100.34286	     140.73587
      23.24042	     151.17529	     140.30090	     109.04237	      90.96104	      82.39799	      97.15305	     106.28753	     131.36258
      23.35721	     199.96077	     133.28159	     133.48628	      79.42992	      94.83318	      96.43661	      98.15092	     125.67378
      23.47400	     187.17590	     144.48007	     105.60521	      82.11654	      78.06530	      96.91423	     104.91437	     138.79980
      23.59078	     179.26958	     143.47366	     108.12125	      97.34068	      98.17651	      96.61572	     107.23424	     139.03862
      23.70757	     172.84731	     142.89369	     117.43484	      83.22530	      84.48758	      97.56243	     105.02525	     140.36913
      23.82435	     205.80309	     106.64574	     130.03207	      83.82233	      83.45558	      95.53255	     102.24481	     136.54817
      23.94114	     169.35896	     122.77395	     109.04237	      78.03118	      93.40031	     112.40277	     115.07233	     143.07280
      24.05793	     270.83618	     171.35474	     110.89315	      92.10392	      82.49181	      86.57717	     111.66928	     129.58003
      24.17471	     205.85426	     113.05097	     115.89964	     112.71834	      86.04838	      86.69657	      96.25751	     149.59743
      24.29150	     155.71268	     132.90631	     114.73970	      91.41307	      83.19971	      91.81393	     107.13189	     142.51842
      24.40828	     131.17494	     111.44753	      80.96513	      75.61749	      74.29551	      97.44302	      90.45783	     148.71895
      24.52507	     187.08208	     135.21765	     116.34314	      84.67522	      81.05042	      93.69030	     105.57963	     139.63565
      24.64186	     233.35153	     125.49467	      91.48983	      77.51092	      88.79469	      93.36620	      95.39608	     146.59525
      24.75864	     125.74202	     127.65250	      86.82451	      87.48977	      89.74140	     104.47939	      89.07615	     130.09177
      24.87543	     189.02667	     125.52026	     133.87862	     102.86742	      84.84579	      99.83113	     111.11490	     123.06393
      24.99221	     234.94644	     121.93811	     126.78255	      83.54940	      79.37022	     110.07437	     102.99536	     141.90434
      25.10900	     240.86551	     128.16423	     125.32410	      84.53023	      78.47469	      94.07410	     101.65632	     128.91478
      25.22579	     127.48192	     124.07034	     106.13401	      70.27838	      80.80309	     100.33434	     103.39622	     135.66116
      25.34257	     148.63367	     129.81885	     111.84839	      86.15073	      75.25075	      90.29578	     110.44965	     122.75689
      25.45936	     259.26242	     149.17099	     112.52218	      83.65175	      77.26358	      88.34266	     103.55827	     128.05336
      25.57615	     248.60979	     128.15570	      94.73936	      86.96950	      93.76706	      90.16785	     106.64574	     144.24980
      25.69293	     159.15837	     143.81482	      96.04428	      95.80547	      83.75410	     104.18089	     109.27265	     138.44159
      25.80972	     309.77075	     133.02573	      99.86524	      91.19132	      87.88210	      88.86292	     101.05930	     138.59511
      25.92650	     252.60132	     143.27750	     121.11934	      92.42802	      75.68572	      85.15284	     104.60733	     143.14104
      26.04329	     310.76010	     135.87439	     117.10221	      85.83515	      90.51753	     102.35569	      96.51337	     115.34525
      26.16007	     172.22469	     134.24536	     127.69514	      88.92262	      80.83720	      98.46650	      96.69248	     144.94064
      26.27686	     154.53569	     127.48192	     105.86961	      92.85446	      82.42358	      90.65400	     112.96568	     131.78050
      26.39365	     256.71228	     114.45824	      98.54326	      83.88203	      83.71145	      84.64964	      94.47496	     128.08748
      26.51043	     166.97087	     112.76099	     118.27068	      85.57928	      85.57928	      98.50914	     107.85685	     139.67828
      26.62722	     141.61435	     131.41376	     106.62016	      80.90543	      81.66451	     101.46868	      99.07205	     141.83611
      26.74401	     155.55916	     115.20879	     103.86531	      92.81182	      81.74126	      87.63476	     111.31960	     137.40959
      26.86079	     144.07922	     130.25381	     141.63994	      85.09314	      71.72830	      83.45558	      99.02088	     140.10474
      26.97758	     256.49051	     135.66116	     103.21711	      95.62637	      77.15270	      90.23608	     104.56468	     136.73581
      27.09436	     165.39302	     118.52654	     103.79708	      91.62630	      79.58345	      91.33631	      94.46643	     131.36258
      27.21115	     235.85904	     131.48198	     112.67570	      92.60712	      88.24031	     109.19589	     103.66914	     151.32881
      27.32793	     290.52094	     140.29237	     106.87602	     103.15741	      77.14417	      99.95906	     105.50287	     118.07451
      27.44472	     250.79320	     153.73396	     115.72053	      75.29340	      96.99952	     103.10624	     115.48171	     127.03841
      27.56151	     203.62820	     129.54591	     118.50948	      78.21882	      71.13128	     106.42399	     101.01665	     131.18347
      27.67829	     197.52150	     121.94664	     111.29401	      82.50034	      79.27641	     105.66492	     102.94418	     137.54605
      27.79508	     262.81897	     128.02777	     144.99181	      90.96957	      81.06748	     100.03582	     111.54135	     128.59068
      27.91187	     210.20401	     113.86974	      99.66908	      97.63066	      69.85194	      98.64561	      88.48765	     137.38400
      28.02865	     251.07465	     125.43497	     100.24052	      86.47482	      69.86900	      89.64758	     102.96977	     138.84245
      28.14544	     210.64752	     120.26644	      95.87370	      76.78596	      89.42583	      92.95681	     115.88258	     133.65686
      28.26222	     246.80165	     122.23663	     119.14063	      91.10603	      72.55561	      85.00784	      93.27238	     126.74843
      28.37901	     272.76370	     105.93784	      94.83318	      92.17215	      85.45135	      92.28303	     101.76720	     123.55008
      28.49580	     240.23438	     126.42433	     105.19582	      87.77975	      76.99065	     120.30909	     108.13831	     130.89349
      28.61258	     169.65747	     154.05806	     112.72687	      88.44501	      84.12083	      85.86927	      98.14240	     137.14520
      28.72937	     225.50491	     145.07710	     140.78705	      98.91000	      80.58133	      89.35760	     105.28964	     126.13435
      28.84615	     143.88306	     130.59497	      97.84389	      84.06966	      77.50239	      86.40659	      97.53684	     121.68224
      28.96294	     229.55615	     157.53787	     118.97858	      93.30650	      86.91833	     101.56250	     104.79497	     134.59505
      29.07973	     200.46397	     128.38599	     104.53057	      95.60931	      79.32758	      91.94186	      98.56032	     133.10248
      29.19651	     221.59866	     114.03180	      98.91853	      82.98649	      87.68593	      97.62213	     109.34088	     134.91914
      29.31330	     179.27811	     139.62712	     104.82055	     109.80145	      74.79019	      88.61559	     103.94207	     132.78691
      29.43008	     220.57520	     137.13667	     112.71834	      93.66471	      82.44917	      92.11244	     106.64574	     130.36470
      29.54687	     203.22734	     142.21138	     127.59280	      97.34068	      86.37247	      83.69439	     106.62868	     134.02361
      29.66366	     293.31845	     111.50723	     104.40263	      77.90325	      79.83932	      87.02921	      98.34709	     131.26024

Monitor Diode	  22982.40
