ALV-7004 CGS-8F Data, Single Run Data
Date :	"05.01.2021"
Time :	"15:56:06"
Samplename : 	"7 2021 MW002-03"
SampMemo(0) : 	"nach ca 3 Monaten, kein Detektor abgeschwächt, "
SampMemo(1) : 	"unverdünnt"
SampMemo(2) : 	""
SampMemo(3) : 	""
SampMemo(4) : 	""
SampMemo(5) : 	""
SampMemo(6) : 	""
SampMemo(7) : 	""
SampMemo(8) : 	""
SampMemo(9) : 	""
Temperature [K] :	     292.93412
Viscosity [cp]  :	       1.00706
Refractive Index:	       1.33200
Wavelength [nm] :	     632.80000
Angle(1)[°]     :	      26.00000
Angle(2)[°]     :	      42.00000
Angle(3)[°]     :	      58.00000
Angle(4)[°]     :	      74.00000
Angle(5)[°]     :	      90.00000
Angle(6)[°]     :	     106.00000
Angle(7)[°]     :	     122.00000
Angle(8)[°]     :	     138.00000
Duration [s]    :	          30.0
Runs            :	         1
Mode            :	"8 x AUTO, 100 ns STC"
MeanCR1 [kHz]   :	     116.02966
MeanCR2 [kHz]   :	      97.24667
MeanCR3 [kHz]   :	      93.92478
MeanCR4 [kHz]   :	      83.74641
MeanCR5 [kHz]   :	      94.35210
MeanCR6 [kHz]   :	     120.66132
MeanCR7 [kHz]   :	     158.10638
MeanCR8 [kHz]   :	     254.02686
Atten[1]        :	       1.00000
Atten[2]        :	       1.00000
Atten[3]        :	       1.00000
RelSens[1]      :	       1.00000
RelSens[2]      :	       1.00000
RelSens[3]      :	       1.00000
RelSens[4]      :	       1.00000
RelSens[5]      :	       1.00000
RelSens[6]      :	       1.00000
RelSens[7]      :	       1.00000
RelSens[8]      :	       1.00000
DC[1][kHz]      :	       0.00000
DC[2][kHz]      :	       0.00000
DC[3][kHz]      :	       0.00000
DC[4][kHz]      :	       0.00000
DC[5][kHz]      :	       0.00000
DC[6][kHz]      :	       0.00000
DC[7][kHz]      :	       0.00000
DC[8][kHz]      :	       0.00000

"Correlation"
  1.00000E-004	  5.46689E-001	  6.61468E-001	  6.26157E-001	  6.64956E-001	  6.59653E-001	  7.10993E-001	  7.24717E-001	  6.41574E-001
  2.00000E-004	  9.32660E-001	  9.85985E-001	  9.77247E-001	  9.87833E-001	  9.99811E-001	  9.81781E-001	  1.00241E+000	  9.69129E-001
  3.00000E-004	  9.31055E-001	  9.77051E-001	  9.84840E-001	  9.86260E-001	  1.00668E+000	  9.70611E-001	  9.87987E-001	  9.77562E-001
  4.00000E-004	  9.29735E-001	  9.69310E-001	  9.76904E-001	  9.70445E-001	  9.90599E-001	  9.68476E-001	  9.79639E-001	  9.85042E-001
  5.00000E-004	  9.28418E-001	  9.69204E-001	  9.67805E-001	  9.72103E-001	  9.76835E-001	  9.60529E-001	  9.77708E-001	  9.78132E-001
  6.00000E-004	  9.26287E-001	  9.62588E-001	  9.81742E-001	  9.81748E-001	  9.73935E-001	  9.52969E-001	  9.73830E-001	  9.66974E-001
  7.00000E-004	  9.33209E-001	  9.60053E-001	  9.68607E-001	  9.67908E-001	  9.81376E-001	  9.58016E-001	  9.59655E-001	  9.63259E-001
  8.00000E-004	  9.27741E-001	  9.60807E-001	  9.81639E-001	  9.64612E-001	  9.86463E-001	  9.75724E-001	  9.79225E-001	  9.82355E-001
  9.00000E-004	  9.29814E-001	  9.64916E-001	  9.70073E-001	  9.61578E-001	  9.83800E-001	  9.52062E-001	  9.62370E-001	  9.59816E-001
  1.00000E-003	  9.26238E-001	  9.57219E-001	  9.63385E-001	  9.62477E-001	  9.72818E-001	  9.62532E-001	  9.73301E-001	  9.64794E-001
  1.10000E-003	  9.24166E-001	  9.56178E-001	  9.76096E-001	  9.64987E-001	  9.69014E-001	  9.53801E-001	  9.66072E-001	  9.74751E-001
  1.20000E-003	  9.28723E-001	  9.59793E-001	  9.55896E-001	  9.89372E-001	  9.61027E-001	  9.60756E-001	  9.60501E-001	  9.50429E-001
  1.30000E-003	  9.26754E-001	  9.58019E-001	  9.62606E-001	  9.74689E-001	  9.66542E-001	  9.68051E-001	  9.74182E-001	  9.67519E-001
  1.40000E-003	  9.24367E-001	  9.56899E-001	  9.68538E-001	  9.72142E-001	  9.77810E-001	  9.44994E-001	  9.47490E-001	  9.52732E-001
  1.50000E-003	  9.27643E-001	  9.56178E-001	  9.76234E-001	  9.63115E-001	  9.66779E-001	  9.47904E-001	  9.63569E-001	  9.57042E-001
  1.60000E-003	  9.26853E-001	  9.54171E-001	  9.76795E-001	  9.64370E-001	  9.83943E-001	  9.62193E-001	  9.62335E-001	  9.60658E-001
  1.80000E-003	  9.25558E-001	  9.57145E-001	  9.71928E-001	  9.62403E-001	  9.64711E-001	  9.53499E-001	  9.63887E-001	  9.65401E-001
  2.00000E-003	  9.22737E-001	  9.55358E-001	  9.74756E-001	  9.65775E-001	  9.70940E-001	  9.58054E-001	  9.58333E-001	  9.63593E-001
  2.20000E-003	  9.29020E-001	  9.56632E-001	  9.65423E-001	  9.55136E-001	  9.73245E-001	  9.49871E-001	  9.67589E-001	  9.62553E-001
  2.40000E-003	  9.25442E-001	  9.63962E-001	  9.69637E-001	  9.58713E-001	  9.78499E-001	  9.51496E-001	  9.59673E-001	  9.66119E-001
  2.60000E-003	  9.27232E-001	  9.54757E-001	  9.70347E-001	  9.56747E-001	  9.69608E-001	  9.55805E-001	  9.54825E-001	  9.60608E-001
  2.80000E-003	  9.27359E-001	  9.68424E-001	  9.70244E-001	  9.64763E-001	  9.72651E-001	  9.52516E-001	  9.60008E-001	  9.51234E-001
  3.00000E-003	  9.29033E-001	  9.58172E-001	  9.71481E-001	  9.65156E-001	  9.70892E-001	  9.47527E-001	  9.58457E-001	  9.52843E-001
  3.20000E-003	  9.27479E-001	  9.61994E-001	  9.63312E-001	  9.52945E-001	  9.70951E-001	  9.54199E-001	  9.51160E-001	  9.55407E-001
  3.60000E-003	  9.25549E-001	  9.60587E-001	  9.62224E-001	  9.62207E-001	  9.71309E-001	  9.44324E-001	  9.56837E-001	  9.56305E-001
  4.00000E-003	  9.27258E-001	  9.57955E-001	  9.66009E-001	  9.60157E-001	  9.55393E-001	  9.49389E-001	  9.56704E-001	  9.53134E-001
  4.40000E-003	  9.24612E-001	  9.56738E-001	  9.62115E-001	  9.58415E-001	  9.65900E-001	  9.46648E-001	  9.48532E-001	  9.54930E-001
  4.80000E-003	  9.26572E-001	  9.56538E-001	  9.65654E-001	  9.55943E-001	  9.65508E-001	  9.39939E-001	  9.53751E-001	  9.49270E-001
  5.20000E-003	  9.25578E-001	  9.55684E-001	  9.66896E-001	  9.59512E-001	  9.58174E-001	  9.53187E-001	  9.48806E-001	  9.54670E-001
  5.60000E-003	  9.25180E-001	  9.54087E-001	  9.65264E-001	  9.59876E-001	  9.57152E-001	  9.47971E-001	  9.44945E-001	  9.46998E-001
  6.00000E-003	  9.24156E-001	  9.53193E-001	  9.66352E-001	  9.52188E-001	  9.55417E-001	  9.40733E-001	  9.52737E-001	  9.46893E-001
  6.40000E-003	  9.24560E-001	  9.54263E-001	  9.66007E-001	  9.55565E-001	  9.51749E-001	  9.41451E-001	  9.48505E-001	  9.40787E-001
  7.20000E-003	  9.23393E-001	  9.55924E-001	  9.59792E-001	  9.50874E-001	  9.57776E-001	  9.37525E-001	  9.44264E-001	  9.37651E-001
  8.00000E-003	  9.23373E-001	  9.54140E-001	  9.63879E-001	  9.51084E-001	  9.61557E-001	  9.39679E-001	  9.39111E-001	  9.35907E-001
  8.80000E-003	  9.25261E-001	  9.55794E-001	  9.59244E-001	  9.51220E-001	  9.54526E-001	  9.33962E-001	  9.40173E-001	  9.34852E-001
  9.60000E-003	  9.23752E-001	  9.56501E-001	  9.62221E-001	  9.51708E-001	  9.55271E-001	  9.31742E-001	  9.39041E-001	  9.34455E-001
  1.04000E-002	  9.24825E-001	  9.53656E-001	  9.62779E-001	  9.50813E-001	  9.45168E-001	  9.32582E-001	  9.39199E-001	  9.30948E-001
  1.12000E-002	  9.24623E-001	  9.54262E-001	  9.57291E-001	  9.43856E-001	  9.56727E-001	  9.26005E-001	  9.30529E-001	  9.27099E-001
  1.20000E-002	  9.25370E-001	  9.51267E-001	  9.59209E-001	  9.47743E-001	  9.45239E-001	  9.30886E-001	  9.32949E-001	  9.22208E-001
  1.28000E-002	  9.24704E-001	  9.52272E-001	  9.60552E-001	  9.44757E-001	  9.49247E-001	  9.24830E-001	  9.26092E-001	  9.19555E-001
  1.44000E-002	  9.23339E-001	  9.50609E-001	  9.54563E-001	  9.43954E-001	  9.42113E-001	  9.22302E-001	  9.20360E-001	  9.13645E-001
  1.60000E-002	  9.21931E-001	  9.49302E-001	  9.55067E-001	  9.44077E-001	  9.38366E-001	  9.16592E-001	  9.15223E-001	  9.10223E-001
  1.76000E-002	  9.21037E-001	  9.49035E-001	  9.55726E-001	  9.38079E-001	  9.35564E-001	  9.09576E-001	  9.11719E-001	  9.04588E-001
  1.92000E-002	  9.22126E-001	  9.47962E-001	  9.50943E-001	  9.33889E-001	  9.32192E-001	  9.07839E-001	  9.04609E-001	  8.97133E-001
  2.08000E-002	  9.21191E-001	  9.47551E-001	  9.51573E-001	  9.33106E-001	  9.29105E-001	  9.03596E-001	  8.98503E-001	  8.92083E-001
  2.24000E-002	  9.21263E-001	  9.46910E-001	  9.48629E-001	  9.28269E-001	  9.27044E-001	  8.98822E-001	  8.94428E-001	  8.88674E-001
  2.40000E-002	  9.20817E-001	  9.45999E-001	  9.45235E-001	  9.28978E-001	  9.23524E-001	  8.94094E-001	  8.92805E-001	  8.80228E-001
  2.56000E-002	  9.19386E-001	  9.45124E-001	  9.44497E-001	  9.24419E-001	  9.19242E-001	  8.91707E-001	  8.87958E-001	  8.75988E-001
  2.88000E-002	  9.18935E-001	  9.42719E-001	  9.40533E-001	  9.18747E-001	  9.11554E-001	  8.81639E-001	  8.77602E-001	  8.62951E-001
  3.20000E-002	  9.18687E-001	  9.41872E-001	  9.36854E-001	  9.12471E-001	  9.06214E-001	  8.74007E-001	  8.64850E-001	  8.52685E-001
  3.52000E-002	  9.17403E-001	  9.39607E-001	  9.36099E-001	  9.10742E-001	  8.94280E-001	  8.67186E-001	  8.57146E-001	  8.41626E-001
  3.84000E-002	  9.17309E-001	  9.35087E-001	  9.30317E-001	  9.04106E-001	  8.92330E-001	  8.57780E-001	  8.50733E-001	  8.31657E-001
  4.16000E-002	  9.14282E-001	  9.35509E-001	  9.28426E-001	  8.99887E-001	  8.82698E-001	  8.48904E-001	  8.39400E-001	  8.21660E-001
  4.48000E-002	  9.15007E-001	  9.34058E-001	  9.25719E-001	  8.96269E-001	  8.80580E-001	  8.42090E-001	  8.31999E-001	  8.11778E-001
  4.80000E-002	  9.14807E-001	  9.30476E-001	  9.21410E-001	  8.85848E-001	  8.70560E-001	  8.30303E-001	  8.19797E-001	  8.01744E-001
  5.12000E-002	  9.13870E-001	  9.29861E-001	  9.20759E-001	  8.83800E-001	  8.66459E-001	  8.24756E-001	  8.12573E-001	  7.91219E-001
  5.76000E-002	  9.12569E-001	  9.26727E-001	  9.11304E-001	  8.74902E-001	  8.50610E-001	  8.11287E-001	  7.93699E-001	  7.72041E-001
  6.40000E-002	  9.10672E-001	  9.22252E-001	  9.05095E-001	  8.66541E-001	  8.42286E-001	  7.99095E-001	  7.75828E-001	  7.51701E-001
  7.04000E-002	  9.09711E-001	  9.17820E-001	  8.99587E-001	  8.56345E-001	  8.29848E-001	  7.80533E-001	  7.58810E-001	  7.34643E-001
  7.68000E-002	  9.07566E-001	  9.14970E-001	  8.93805E-001	  8.46520E-001	  8.16781E-001	  7.66305E-001	  7.41798E-001	  7.16524E-001
  8.32000E-002	  9.06073E-001	  9.12402E-001	  8.88155E-001	  8.40508E-001	  8.04752E-001	  7.52375E-001	  7.24819E-001	  6.99489E-001
  8.96000E-002	  9.04659E-001	  9.09183E-001	  8.80948E-001	  8.31382E-001	  7.91900E-001	  7.41512E-001	  7.09059E-001	  6.81948E-001
  9.60000E-002	  9.02522E-001	  9.04313E-001	  8.74623E-001	  8.20441E-001	  7.82310E-001	  7.25330E-001	  6.95102E-001	  6.63906E-001
  1.02400E-001	  9.01178E-001	  9.00702E-001	  8.69125E-001	  8.11588E-001	  7.70859E-001	  7.11730E-001	  6.79292E-001	  6.47968E-001
  1.15200E-001	  8.98271E-001	  8.93631E-001	  8.57282E-001	  7.95141E-001	  7.48967E-001	  6.86009E-001	  6.52121E-001	  6.17381E-001
  1.28000E-001	  8.95031E-001	  8.86204E-001	  8.45926E-001	  7.76074E-001	  7.26988E-001	  6.59910E-001	  6.22079E-001	  5.86814E-001
  1.40800E-001	  8.92218E-001	  8.79899E-001	  8.32967E-001	  7.62055E-001	  7.05982E-001	  6.38956E-001	  5.95742E-001	  5.57923E-001
  1.53600E-001	  8.89430E-001	  8.72660E-001	  8.22197E-001	  7.44646E-001	  6.84889E-001	  6.13495E-001	  5.70032E-001	  5.31342E-001
  1.66400E-001	  8.86569E-001	  8.66186E-001	  8.11050E-001	  7.29273E-001	  6.66363E-001	  5.91402E-001	  5.46132E-001	  5.04934E-001
  1.79200E-001	  8.83356E-001	  8.58940E-001	  7.98682E-001	  7.14682E-001	  6.46373E-001	  5.70007E-001	  5.20644E-001	  4.80678E-001
  1.92000E-001	  8.80700E-001	  8.52680E-001	  7.89068E-001	  7.00398E-001	  6.28537E-001	  5.47572E-001	  5.00313E-001	  4.57178E-001
  2.04800E-001	  8.77301E-001	  8.46467E-001	  7.77838E-001	  6.84417E-001	  6.11973E-001	  5.28150E-001	  4.79448E-001	  4.35767E-001
  2.30400E-001	  8.71556E-001	  8.32469E-001	  7.56808E-001	  6.54603E-001	  5.77462E-001	  4.90175E-001	  4.39658E-001	  3.95151E-001
  2.56000E-001	  8.65539E-001	  8.19930E-001	  7.35660E-001	  6.27195E-001	  5.43367E-001	  4.55516E-001	  4.03769E-001	  3.57918E-001
  2.81600E-001	  8.59323E-001	  8.06979E-001	  7.16211E-001	  6.00601E-001	  5.14138E-001	  4.23749E-001	  3.69920E-001	  3.24274E-001
  3.07200E-001	  8.53832E-001	  7.94909E-001	  6.95764E-001	  5.75035E-001	  4.85512E-001	  3.93294E-001	  3.39440E-001	  2.93722E-001
  3.32800E-001	  8.47837E-001	  7.82017E-001	  6.76486E-001	  5.50211E-001	  4.57427E-001	  3.65691E-001	  3.11756E-001	  2.65809E-001
  3.58400E-001	  8.42410E-001	  7.70006E-001	  6.58473E-001	  5.26428E-001	  4.32166E-001	  3.38713E-001	  2.86430E-001	  2.41779E-001
  3.84000E-001	  8.36787E-001	  7.58015E-001	  6.40567E-001	  5.04851E-001	  4.07964E-001	  3.13958E-001	  2.63605E-001	  2.20765E-001
  4.09600E-001	  8.31331E-001	  7.46040E-001	  6.23360E-001	  4.83185E-001	  3.85590E-001	  2.92524E-001	  2.42718E-001	  1.99786E-001
  4.60800E-001	  8.20312E-001	  7.23481E-001	  5.89628E-001	  4.43775E-001	  3.44403E-001	  2.52330E-001	  2.04362E-001	  1.64041E-001
  5.12000E-001	  8.09483E-001	  7.01444E-001	  5.57979E-001	  4.06481E-001	  3.07204E-001	  2.18198E-001	  1.72129E-001	  1.34436E-001
  5.63200E-001	  7.98921E-001	  6.79614E-001	  5.28288E-001	  3.73522E-001	  2.74253E-001	  1.89269E-001	  1.45394E-001	  1.11210E-001
  6.14400E-001	  7.88426E-001	  6.58445E-001	  5.00162E-001	  3.43584E-001	  2.45365E-001	  1.64669E-001	  1.23022E-001	  9.21542E-002
  6.65600E-001	  7.78104E-001	  6.37937E-001	  4.73600E-001	  3.16709E-001	  2.20444E-001	  1.42442E-001	  1.04532E-001	  7.69534E-002
  7.16800E-001	  7.68111E-001	  6.18476E-001	  4.48432E-001	  2.90974E-001	  1.97809E-001	  1.24978E-001	  8.89367E-002	  6.40980E-002
  7.68000E-001	  7.58279E-001	  5.99616E-001	  4.24850E-001	  2.67019E-001	  1.77337E-001	  1.09150E-001	  7.59489E-002	  5.29048E-002
  8.19200E-001	  7.48578E-001	  5.81837E-001	  4.02543E-001	  2.46071E-001	  1.58866E-001	  9.59091E-002	  6.61462E-002	  4.44587E-002
  9.21600E-001	  7.29526E-001	  5.47050E-001	  3.61488E-001	  2.08973E-001	  1.26471E-001	  7.36713E-002	  4.86449E-002	  3.12906E-002
  1.02400E+000	  7.10724E-001	  5.14323E-001	  3.24319E-001	  1.76757E-001	  9.94179E-002	  5.76081E-002	  3.48418E-002	  2.32073E-002
  1.12640E+000	  6.92665E-001	  4.83973E-001	  2.91182E-001	  1.50201E-001	  7.84436E-002	  4.37397E-002	  2.65106E-002	  1.72364E-002
  1.22880E+000	  6.75314E-001	  4.55355E-001	  2.60885E-001	  1.27608E-001	  6.15381E-002	  3.17136E-002	  2.06101E-002	  1.21753E-002
  1.33120E+000	  6.58065E-001	  4.28000E-001	  2.33453E-001	  1.07970E-001	  4.81964E-002	  2.29038E-002	  1.62217E-002	  7.71529E-003
  1.43360E+000	  6.41564E-001	  4.02409E-001	  2.08680E-001	  9.08240E-002	  3.72794E-002	  1.61138E-002	  1.20507E-002	  3.86097E-003
  1.53600E+000	  6.25252E-001	  3.78322E-001	  1.86565E-001	  7.57817E-002	  2.71108E-002	  1.10262E-002	  7.17324E-003	  1.80805E-003
  1.63840E+000	  6.09543E-001	  3.55395E-001	  1.68059E-001	  6.42173E-002	  2.11636E-002	  7.49171E-003	  4.13469E-003	  2.00058E-004
  1.84320E+000	  5.79289E-001	  3.13542E-001	  1.35236E-001	  4.53236E-002	  1.11357E-002	  3.80375E-003	 -9.00425E-004	 -1.35749E-003
  2.04800E+000	  5.50953E-001	  2.76798E-001	  1.07608E-001	  3.26038E-002	  5.78887E-003	  4.01052E-004	 -1.76187E-003	 -5.80131E-004
  2.25280E+000	  5.23804E-001	  2.43880E-001	  8.49354E-002	  2.24554E-002	  2.02264E-003	 -5.53242E-004	 -7.21314E-004	  7.06684E-004
  2.45760E+000	  4.97784E-001	  2.14922E-001	  6.64843E-002	  1.53788E-002	 -1.14089E-003	  2.39221E-003	  2.85172E-004	  1.64064E-003
  2.66240E+000	  4.72735E-001	  1.89548E-001	  5.27360E-002	  1.05614E-002	 -3.67056E-003	  2.18407E-003	 -6.71608E-004	  4.56433E-004
  2.86720E+000	  4.48510E-001	  1.67483E-001	  4.27296E-002	  6.26384E-003	 -7.30079E-003	  6.06502E-004	 -2.55236E-003	  7.41044E-004
  3.07200E+000	  4.25683E-001	  1.48111E-001	  3.37726E-002	  3.83914E-003	 -7.80026E-003	 -1.78366E-003	 -1.16238E-003	  2.73172E-003
  3.27680E+000	  4.04423E-001	  1.30302E-001	  2.71173E-002	  3.22215E-003	 -7.30254E-003	 -1.20740E-003	  2.15851E-005	  3.49362E-003
  3.68640E+000	  3.63530E-001	  9.91365E-002	  1.68425E-002	  5.75279E-003	 -5.36227E-003	  4.38569E-004	  2.17403E-003	  5.65398E-003
  4.09600E+000	  3.27407E-001	  7.36071E-002	  8.64901E-003	  6.02011E-003	 -3.96883E-003	 -9.15899E-005	  7.34847E-003	  7.85105E-003
  4.50560E+000	  2.95030E-001	  5.43250E-002	  4.52271E-003	  2.68140E-003	 -2.52227E-003	 -3.19808E-003	  9.98656E-003	  5.36192E-003
  4.91520E+000	  2.66365E-001	  3.96327E-002	  2.23287E-003	  5.38010E-004	 -4.08492E-003	 -3.61391E-003	  4.74641E-003	  3.12330E-003
  5.32480E+000	  2.40124E-001	  2.75566E-002	  3.71414E-004	 -9.47142E-005	 -5.09873E-003	 -1.11693E-003	  7.54340E-006	  2.83910E-003
  5.73440E+000	  2.16417E-001	  1.76113E-002	 -3.44245E-004	  1.46330E-003	 -4.82226E-003	 -1.56313E-003	  7.82889E-004	  3.43088E-004
  6.14400E+000	  1.95551E-001	  8.78020E-003	 -1.48387E-003	  9.88263E-004	 -8.15503E-004	 -2.47324E-003	  1.76398E-005	 -6.64153E-004
  6.55360E+000	  1.78670E-001	  2.03951E-003	 -2.06330E-003	  3.83562E-003	  2.33607E-003	 -2.07091E-003	 -1.83554E-003	  4.73132E-003
  7.37280E+000	  1.49929E-001	 -4.50191E-003	  1.05950E-003	  1.69858E-003	  6.29667E-003	  6.47782E-004	  1.77459E-003	  5.93522E-003
  8.19200E+000	  1.28040E-001	 -1.61600E-003	  3.38481E-003	  1.15730E-003	  6.70308E-003	  2.83035E-003	  2.93100E-003	  1.87146E-003
  9.01120E+000	  1.08915E-001	  2.65128E-003	  2.55980E-003	  7.95626E-003	  7.72387E-003	  7.24511E-003	  1.04993E-003	  1.56831E-003
  9.83040E+000	  9.27821E-002	  3.29506E-003	 -4.99634E-003	  2.78255E-003	  4.92755E-003	  2.75839E-003	  1.17175E-003	 -1.88483E-003
  1.06496E+001	  7.93373E-002	  3.34466E-003	 -8.65113E-003	  2.93228E-003	 -1.01063E-003	  1.17724E-003	  8.62621E-004	  7.07307E-004
  1.14688E+001	  6.92834E-002	  5.17957E-003	 -4.06030E-003	 -1.28318E-003	 -1.63085E-003	  6.34611E-003	 -1.22764E-003	 -4.01756E-003
  1.22880E+001	  6.39981E-002	  5.21210E-003	 -2.29991E-004	 -2.06848E-003	  2.08746E-003	  2.53049E-004	  1.01865E-003	 -3.63227E-003
  1.31072E+001	  6.07207E-002	  1.82284E-003	  4.43505E-004	  2.45520E-003	  1.74397E-003	 -2.08105E-003	  8.14809E-004	 -1.11599E-003
  1.47456E+001	  5.41535E-002	  2.98245E-003	  1.95538E-003	  5.08590E-003	 -3.23713E-003	  4.62045E-003	  6.07645E-003	  7.76503E-005
  1.63840E+001	  4.83102E-002	  4.70212E-003	 -2.00249E-003	  2.50155E-003	 -4.54548E-003	  2.35018E-003	  5.20761E-005	  2.21639E-003
  1.80224E+001	  4.14684E-002	 -1.06208E-003	 -3.61476E-003	  4.69050E-003	 -5.44876E-003	 -2.10202E-003	 -1.50296E-003	 -1.87114E-005
  1.96608E+001	  3.59782E-002	 -1.00991E-002	 -4.63280E-003	  7.29447E-004	 -1.60829E-003	  6.10207E-004	  4.59165E-004	  1.36032E-003
  2.12992E+001	  3.01883E-002	 -5.69894E-003	 -7.10129E-003	  4.41336E-003	  1.34709E-003	  3.77091E-003	  9.92757E-004	  1.90894E-004
  2.29376E+001	  2.50366E-002	 -6.02544E-003	 -7.15987E-003	  2.73510E-003	 -6.80046E-004	 -9.78109E-005	 -3.20092E-003	 -2.82617E-003
  2.45760E+001	  2.33930E-002	 -7.51349E-003	 -8.63803E-003	 -3.38366E-003	  4.27940E-003	  2.91846E-003	  5.66664E-006	  3.63321E-003
  2.62144E+001	  2.92198E-002	  7.18666E-004	 -9.00437E-003	 -3.92795E-003	  2.83597E-003	 -7.70485E-004	  1.74408E-004	  1.39693E-003
  2.94912E+001	  3.58309E-002	 -2.43534E-003	 -2.27053E-003	 -1.42148E-003	  1.63724E-003	 -5.74336E-003	 -1.51020E-003	 -1.71607E-003
  3.27680E+001	  3.44634E-002	 -1.16968E-002	  4.97806E-004	  1.30017E-003	  4.67797E-003	 -5.68920E-004	  1.30869E-003	 -1.05381E-003
  3.60448E+001	  2.65709E-002	 -7.81692E-003	  2.56338E-003	  2.80002E-003	 -7.26092E-004	 -6.95735E-004	  3.24897E-003	  2.00660E-003
  3.93216E+001	  1.10174E-002	 -8.52589E-003	  5.00898E-003	 -3.36501E-003	 -7.84770E-004	 -1.12383E-004	 -8.24443E-004	 -1.01008E-003
  4.25984E+001	  2.09310E-003	 -5.00976E-004	  3.95096E-003	 -5.48549E-003	  5.26000E-003	 -2.74137E-003	  1.11260E-003	  2.51578E-003
  4.58752E+001	  3.33997E-003	 -4.57642E-003	 -2.65696E-003	  1.28567E-003	 -1.08661E-003	 -3.04789E-003	 -4.13475E-004	 -1.06193E-004
  4.91520E+001	  4.63773E-003	 -8.81681E-003	 -2.18471E-003	 -1.16321E-003	  3.32677E-003	  1.74769E-003	  1.43683E-003	  9.24361E-004
  5.24288E+001	  2.50829E-003	 -4.88695E-003	  4.17849E-003	  3.91585E-003	  8.33385E-004	 -8.89215E-004	  1.39312E-003	  8.32470E-004
  5.89824E+001	  1.44669E-003	  4.13555E-003	  2.38918E-003	 -1.64617E-003	 -6.40798E-004	 -1.79437E-003	  2.66905E-003	  8.59103E-005
  6.55360E+001	  1.30990E-002	  5.21000E-003	 -2.46068E-003	  2.36789E-003	  1.65220E-003	 -1.90331E-003	 -8.05152E-004	  1.14502E-004
  7.20896E+001	  5.20917E-003	 -1.90848E-004	 -8.86447E-003	 -3.25426E-004	 -6.72414E-004	 -1.06939E-004	 -1.36620E-003	 -8.77069E-004
  7.86432E+001	  1.12897E-002	  2.49231E-003	 -2.02162E-003	  6.88938E-004	  2.15849E-003	 -1.48069E-004	  6.94225E-004	 -1.04063E-003
  8.51968E+001	  1.52802E-002	  4.16770E-003	  3.27328E-004	  1.75402E-003	  4.17958E-004	 -1.40483E-003	 -2.11286E-003	 -7.12244E-004
  9.17504E+001	  1.66053E-002	  1.43239E-003	 -1.62516E-003	 -2.63830E-003	 -9.38364E-004	 -6.35161E-004	 -1.43929E-003	  1.88588E-003
  9.83040E+001	  1.11699E-002	 -7.94264E-003	 -1.07680E-003	  8.32148E-004	 -4.21945E-004	  1.42425E-003	 -1.02808E-003	  2.36278E-003
  1.04858E+002	  2.49753E-003	 -4.92809E-003	  1.18269E-003	  3.70961E-003	  8.27992E-004	  1.30193E-003	  9.44542E-004	  2.32219E-004
  1.17965E+002	 -1.10535E-002	  7.85080E-003	  3.51156E-003	  1.19118E-003	  7.68620E-004	 -1.82744E-003	 -2.98185E-004	 -5.39263E-004
  1.31072E+002	 -1.67571E-002	 -4.59953E-003	  4.63905E-004	 -1.85917E-003	 -1.21750E-004	 -2.10183E-003	  8.52005E-004	  4.90018E-004
  1.44179E+002	 -1.46426E-002	 -6.14789E-003	 -1.99945E-003	 -2.65611E-003	  7.88774E-004	 -1.47433E-004	  1.34121E-003	  3.69597E-004
  1.57286E+002	  2.28543E-004	 -1.12889E-002	 -2.48991E-003	  8.39266E-004	  9.72820E-004	  9.12364E-004	  8.50087E-004	 -9.16688E-006
  1.70394E+002	 -5.35848E-003	 -8.08057E-003	  4.07131E-003	 -4.73001E-005	 -4.88070E-004	 -2.44724E-005	 -1.54153E-003	 -8.25230E-004
  1.83501E+002	  3.54442E-003	  2.19024E-003	 -6.73437E-004	  1.82141E-003	  2.60832E-003	 -8.32911E-004	  1.79339E-004	 -2.33781E-004
  1.96608E+002	  1.31240E-003	 -1.95949E-003	 -7.47760E-003	  2.36054E-003	 -4.49097E-004	  7.40344E-004	  1.65138E-004	 -3.87862E-004
  2.09715E+002	 -3.82503E-003	  1.27047E-004	 -4.42063E-003	  1.84413E-003	  3.80325E-004	  3.09380E-004	 -1.10589E-003	 -6.70675E-005
  2.35930E+002	  1.55534E-003	 -7.08515E-003	  3.29899E-004	  1.78797E-004	  1.50217E-003	 -4.00864E-004	 -7.54063E-004	  6.65377E-005
  2.62144E+002	  8.98581E-003	  1.16534E-003	 -1.47193E-005	  3.95651E-004	  1.28037E-004	  1.39633E-003	 -5.17741E-004	 -3.33872E-004
  2.88358E+002	 -4.13082E-003	  5.16996E-003	 -9.64795E-004	  1.03585E-003	 -1.69164E-004	  8.08088E-005	  3.13571E-004	 -1.64378E-004
  3.14573E+002	  7.85532E-003	 -1.07499E-003	 -1.18344E-003	 -8.87848E-004	 -1.25713E-003	 -9.55747E-004	  1.41852E-003	 -8.07078E-004
  3.40787E+002	  2.21145E-003	 -1.95307E-003	 -3.22730E-004	 -9.38281E-004	  1.49416E-003	  1.23641E-003	 -3.28674E-004	  1.12356E-003
  3.67002E+002	 -2.84846E-003	 -1.27736E-003	  1.82297E-004	 -2.75900E-004	  9.31741E-004	  6.27593E-004	 -9.57179E-005	 -1.23101E-003
  3.93216E+002	 -8.83190E-003	 -2.71248E-003	  2.26319E-003	  2.28695E-003	 -1.18503E-004	  7.92783E-004	  4.34314E-004	 -6.60268E-005
  4.19430E+002	  4.94441E-003	 -2.56079E-003	 -3.39279E-004	  2.27927E-003	  2.01334E-004	 -7.21331E-004	  9.30230E-004	 -8.35684E-004
  4.71859E+002	 -6.83813E-003	 -3.35982E-003	 -6.29696E-004	 -9.68054E-004	  2.43808E-004	 -1.22251E-003	 -4.56036E-004	 -9.51862E-004
  5.24288E+002	 -3.25682E-003	  4.53925E-003	  5.14140E-004	 -1.13516E-004	 -2.57933E-004	  1.87638E-004	 -1.68110E-004	  3.09933E-004
  5.76717E+002	 -2.83609E-003	  1.15805E-003	 -4.41075E-004	  1.61506E-004	 -2.51739E-004	  8.48515E-004	  3.52160E-004	  2.60098E-004
  6.29146E+002	 -1.05814E-003	  3.36215E-003	 -7.69146E-004	 -1.20860E-003	 -1.25896E-003	  1.33946E-003	 -4.19832E-004	  6.69315E-004
  6.81574E+002	 -1.14545E-002	 -2.44931E-003	  1.56614E-003	 -1.07055E-004	  1.16019E-003	  2.60947E-004	 -3.43940E-004	  3.38705E-004
  7.34003E+002	  4.74652E-003	 -1.78689E-004	  1.20215E-003	 -3.41235E-003	  1.23860E-003	 -4.59079E-004	 -9.67493E-004	 -6.03628E-005
  7.86432E+002	 -5.55851E-004	  6.02620E-004	 -2.30441E-003	 -4.46790E-004	 -1.21919E-003	 -1.44230E-004	 -2.47050E-005	  5.21482E-004
  8.38861E+002	 -2.77504E-003	 -2.38461E-003	  1.24499E-003	 -1.25343E-003	 -1.36768E-003	 -3.53282E-004	  6.54955E-006	  6.47060E-005
  9.43718E+002	  4.98259E-003	  8.51399E-004	  1.29177E-003	 -1.81673E-004	 -1.34376E-003	  2.74535E-005	  7.38189E-004	  4.72008E-004
  1.04858E+003	  2.34806E-003	 -1.02471E-003	 -7.43427E-004	 -1.95733E-003	 -6.31778E-004	  2.45247E-004	  1.75204E-004	 -3.93068E-004
  1.15343E+003	  2.94328E-003	 -6.84314E-004	 -3.01964E-004	 -2.54139E-004	 -6.75759E-004	 -4.86601E-004	 -1.19494E-004	 -6.10435E-004
  1.25829E+003	  4.34747E-003	  3.30235E-003	  1.20237E-003	 -8.50670E-004	 -3.80758E-004	  4.04034E-004	  5.72147E-004	 -4.66272E-004
  1.36315E+003	 -2.23929E-003	 -1.78613E-003	 -2.74024E-004	 -4.34665E-005	  2.22881E-005	 -3.91617E-004	  3.32477E-004	 -3.86775E-004
  1.46801E+003	  3.71878E-003	 -1.55912E-003	 -1.78840E-003	  5.82177E-004	  8.31496E-005	 -6.14625E-004	 -3.93138E-004	  6.38995E-004
  1.57286E+003	 -1.39472E-003	  1.98866E-003	 -2.02509E-004	  8.78057E-004	  5.26839E-004	  8.10096E-004	 -6.16554E-004	  1.60179E-004
  1.67772E+003	 -6.70145E-003	 -2.62252E-003	 -1.44713E-006	  3.45379E-004	 -1.24869E-004	 -1.40253E-004	 -2.24684E-005	 -2.76154E-004
  1.88744E+003	  2.71251E-003	 -1.48406E-003	 -1.72111E-005	 -1.75430E-004	 -8.15208E-005	 -1.73423E-004	 -5.76029E-005	 -6.58521E-005
  2.09715E+003	 -3.11155E-004	  1.09721E-003	  3.23066E-004	  4.40279E-004	 -2.63207E-004	  7.75753E-004	 -2.12117E-004	 -3.42701E-005
  2.30687E+003	  2.87022E-003	 -1.49332E-003	  1.05682E-004	 -5.21717E-004	 -6.53478E-004	 -2.68064E-004	 -1.42677E-005	  2.44603E-005
  2.51658E+003	 -2.72739E-004	 -9.14425E-004	 -4.97008E-005	  1.28815E-004	 -3.93324E-004	 -1.68027E-004	 -3.66758E-004	  5.36688E-005
  2.72630E+003	 -7.37679E-003	 -1.40161E-003	  7.36011E-006	  3.07389E-004	 -5.42076E-004	  4.29453E-004	  1.09465E-004	  5.13147E-004
  2.93601E+003	  4.82843E-003	 -3.08879E-004	  7.56228E-006	 -2.42595E-004	 -2.61205E-004	 -2.81526E-004	 -7.65067E-006	  2.98386E-004
"Count Rate"
       0.11679	     228.56680	     125.27293	     130.86790	      96.37691	      79.78814	      91.80540	      94.78200	     128.44569
       0.23357	     309.91574	     157.18819	     128.18982	      94.48349	      81.57922	      91.37043	      96.73512	     114.73970
       0.35036	     184.60869	     128.78685	     136.33495	     107.62657	      75.03753	      92.35979	      83.85644	     110.60316
       0.46714	     193.35938	     165.47830	     137.10255	      92.98240	      84.47053	     112.39424	      88.06120	     119.05534
       0.58393	     171.49120	     151.03029	     120.23233	      98.64561	      82.86709	      85.92897	      90.92693	     111.50723
       0.70072	     234.71616	     161.67439	      97.13599	      81.53658	      73.93729	      96.76071	      90.31284	     126.65461
       0.81750	     249.93176	     135.29442	     120.53084	      78.08235	      86.98656	      88.07826	     101.37486	     110.85050
       0.93429	     189.60664	     167.61906	     119.60972	     105.69903	      76.75184	      89.25526	      92.66682	     132.01930
       1.05107	     343.95468	     168.33549	     104.56468	     101.63926	      85.53664	      98.52620	     108.59887	     102.21070
       1.16786	     467.68390	     143.11545	     116.12138	      88.11238	      89.20408	      83.68586	      98.82471	     109.23854
       1.28465	     395.19650	     168.22462	      99.00382	     114.73117	      89.51112	      98.10828	      89.81816	     105.98048
       1.40143	     262.46930	     171.18416	     126.08318	     113.81004	      78.10794	     102.11688	     101.44309	     110.79933
       1.51822	     448.51086	     156.77026	     131.59286	      95.56667	      80.46193	      88.89704	     113.96356	     125.96377
       1.63500	     324.07376	     181.87091	     114.46677	      92.55595	      90.79899	      97.74154	      91.82246	     118.49242
       1.75179	     271.91083	     145.33296	     131.86578	      93.91205	      73.92023	      80.70927	      98.02299	     102.85889
       1.86858	     218.82677	     155.78091	     117.78452	      90.58577	      81.79244	      93.35767	      88.96527	     112.12984
       1.98536	     289.02838	     131.35405	     111.08932	     103.72885	      91.77982	     109.07648	      95.05492	     117.83570
       2.10215	     174.91983	     164.85570	     117.12780	      96.62425	      77.06741	      97.20422	      98.09122	     108.11272
       2.21894	     272.32874	     128.42863	     128.97449	      98.61149	      77.40857	      88.93968	      88.73499	     126.66314
       2.33572	     186.53622	     166.57854	     116.30902	      87.85651	      78.96936	      87.11449	      98.56885	     116.28343
       2.45251	     242.45190	     127.92542	      99.46439	      78.28705	      78.55997	      97.13599	      97.17863	     128.76979
       2.56929	     299.60425	     173.73431	     119.46472	      91.82246	      76.92242	     101.31516	      99.56673	     104.76085
       2.68608	     267.25403	     123.67802	     142.26256	      87.53241	      84.63258	     107.14042	     102.38128	     105.25552
       2.80287	     323.25497	     208.17413	     104.82055	      81.69009	      80.44487	      88.01856	     100.36845	     115.12350
       2.91965	     220.74577	     165.78534	     115.66935	     101.40045	      79.05466	      94.01440	     102.98683	     113.40066
       3.03644	     299.10959	     158.18607	     120.45408	      90.73076	      76.39363	     100.79490	      90.56871	     111.89957
       3.15322	     251.19405	     137.90427	     132.36047	      92.98240	      77.13564	     100.59873	      97.66478	     119.23444
       3.27001	     153.95572	     154.47598	     107.81421	     109.68204	      88.27443	      77.03329	     103.92501	     109.89526
       3.38680	     216.32779	     184.81339	     129.03418	      86.97803	      77.79237	      85.94603	      95.58372	     116.18961
       3.50358	     341.04633	     157.68286	     107.93361	      98.33003	      96.90570	      83.60910	      88.03561	     119.38796
       3.62037	     409.76392	     141.03439	     116.87193	      94.26173	      85.88633	      92.12097	      85.52811	     117.09368
       3.73715	     180.60010	     158.62105	     122.52661	      89.14438	      87.22536	      90.95251	      90.28725	     116.53077
       3.85394	     273.77014	     202.49387	     138.09190	      84.25730	      91.05486	      93.35767	     101.74161	     108.12978
       3.97073	     344.71378	     161.76822	     127.15782	      82.44917	      94.80759	      87.98444	      92.89711	     113.17037
       4.08751	     325.31046	     160.88121	     116.51372	     101.83543	      82.56857	      96.94835	     106.62016	     111.13196
       4.20430	     197.18886	     165.13715	     117.49454	      93.80117	      78.68791	      95.84811	     108.43682	      99.03793
       4.32108	     187.90939	     187.18443	     133.91273	      95.49843	      86.98656	      90.83311	     103.78855	     130.85085
       4.43787	     152.23288	     181.14595	      99.86524	      92.38537	      79.01201	      85.57928	     101.40898	     105.40905
       4.55466	     152.74461	     168.23315	     117.87834	      96.69248	      86.00573	      91.84805	      91.27661	     105.24700
       4.67144	     236.29401	     151.89172	     155.04742	      84.69228	      96.35133	     100.44521	     100.85460	     111.47311
       4.78823	     217.55595	     145.62296	     146.01529	      94.76495	      79.02907	      99.42174	      94.24467	     110.31318
       4.90501	     209.24878	     149.69978	     123.56714	      93.62206	      90.38107	      92.41949	      82.01419	     121.68224
       5.02180	     257.87219	     185.46158	     121.38374	      78.06530	      72.93941	      75.66014	     110.22789	     113.63947
       5.13859	     240.43054	     173.81960	     114.73117	      92.89711	      82.64533	      93.35767	      93.89499	     107.15748
       5.25537	     246.09375	     138.74011	     120.22380	      91.30220	      99.31939	     101.57956	      87.93327	     108.99973
       5.37216	     190.03310	     154.60391	     131.84872	      89.52818	      80.32546	      85.09314	     102.17658	     128.92331
       5.48894	     246.52873	     150.80002	     136.31789	     134.70592	      71.69418	      94.20203	     103.92501	     116.50519
       5.60573	     318.83701	     174.98805	     119.49884	      91.09750	      84.07819	      89.92051	      91.33631	     127.88278
       5.72252	     252.38811	     105.04230	     127.00430	      84.40229	      94.66260	      90.79046	      85.66457	     117.55424
       5.83930	     173.47844	     127.81454	     109.10207	      99.73731	      82.80738	     101.36633	     103.38769	     120.09586
       5.95609	     386.63345	     170.62978	     110.86756	      90.34695	     101.14458	      89.28937	      91.89922	     132.09607
       6.07287	     174.48485	     162.25436	     134.05772	     105.77579	      78.36381	      92.96534	      95.67754	     122.72278
       6.18966	     291.62119	     172.94112	     136.09615	      84.95667	      87.63476	      94.56025	     105.45169	     125.83584
       6.30645	     242.78453	     167.55936	     125.86995	      90.21049	      84.81168	      93.82676	     100.99959	     119.60972
       6.42323	     329.89050	     160.32683	      93.43443	      79.39581	      78.86702	      98.04005	     107.14895	     118.25362
       6.54002	     209.92256	     170.48479	     111.35371	      95.18286	      94.86729	      91.43013	      94.63701	     114.56912
       6.65680	     206.29776	     173.29080	     100.04435	      87.72005	      74.91812	      94.98669	     106.09136	     115.87405
       6.77359	     215.61136	     149.80212	     121.62254	      94.20203	      70.95217	      89.77552	     107.52422	     112.39424
       6.89038	     382.33487	     135.88292	     120.88905	     111.27695	      88.36825	      94.75642	      94.75642	     121.40932
       7.00716	     310.61511	     125.05970	     120.92317	     114.62882	      92.99093	      84.96520	      84.17201	     113.14479
       7.12395	     169.55513	     159.38011	     124.24945	      82.74768	      89.67317	      93.62206	     108.20654	     118.27068
       7.24074	     291.91116	     191.67917	     150.94501	     102.43245	      90.54312	      94.11674	     112.36865	     110.39847
       7.35752	     171.44855	     188.13113	     129.46063	     107.92508	      88.74352	      93.89499	     106.15959	     118.40714
       7.47431	     363.68210	     118.15980	     134.48418	      87.77122	      84.89697	      92.79476	      96.31721	     113.63947
       7.59109	     180.11395	     141.58878	     105.06789	      90.91840	      92.10392	      85.47694	      99.56673	     111.87398
       7.70788	     139.57594	     200.75395	     111.17461	      93.97176	      82.69651	      87.77975	      99.93347	     130.47557
       7.82467	     215.73076	     146.98758	     103.94207	     101.15311	      77.19534	     100.40257	      99.04646	     105.87814
       7.94145	     422.12234	     146.21146	     119.32826	      79.47257	      95.92488	     101.98895	      98.23621	     116.18108
       8.05824	     186.13538	     135.74644	     141.99815	      98.24474	      94.20203	      92.56448	      93.42590	     119.01269
       8.17502	     282.39288	     155.01331	     117.04251	      95.72018	      84.92255	     108.00184	      96.39397	     106.41546
       8.29181	     230.33229	     136.34348	     122.14281	     103.38769	      78.23588	      84.36818	      92.84593	     121.02552
       8.40860	     173.90489	     167.26085	     130.75703	      97.96329	      72.43620	      98.26180	     105.38346	     108.25771
       8.52538	     206.73274	     185.58099	     111.26842	     104.35999	      84.30847	      84.62405	     110.96138	     110.41553
       8.64217	     145.59737	     190.68129	     129.40945	     106.27047	      87.26801	      91.64336	      91.80540	     107.30247
       8.75895	     294.37604	     141.75935	     120.47114	      91.47278	      71.78800	      91.74570	      87.66035	     129.24741
       8.87574	     182.20354	     144.30949	     107.54981	      88.82880	      83.92467	      90.27020	     102.75655	     135.60999
       8.99253	     251.27081	     127.95954	     148.34369	     108.69269	      77.75826	     100.93136	      92.14656	     124.52238
       9.10931	     219.76494	     196.87329	     133.64833	      92.55595	      91.43013	     101.12753	     101.05930	     106.22782
       9.22610	     270.32443	     165.89622	     111.74604	      99.83965	      79.60050	      96.01017	      84.37671	     129.11948
       9.34288	     254.64827	     116.10432	     126.61197	      86.75628	      85.54517	      96.21486	     102.40686	     108.88885
       9.45967	     177.83672	     160.53152	     117.27279	      92.18921	      70.99481	      84.73492	      93.65618	     114.21091
       9.57646	     112.13837	     150.03241	     109.28971	      90.32990	      90.19344	      88.70087	      94.14233	     113.86974
       9.69324	     194.97134	     148.65073	     106.13401	      92.56448	      74.64520	      91.83952	      91.83952	     106.07430
       9.81003	     188.13113	     165.23096	     113.37507	      97.52831	      81.56216	      76.87125	      93.12739	     129.69945
       9.92681	     241.14697	     145.16238	     114.23649	      99.35351	      79.39581	     102.68832	      97.33215	     120.99993
      10.04360	     254.93825	     135.87439	      99.97612	      79.53227	      76.87125	      94.33849	      86.87568	     111.77163
      10.16039	     136.11319	     150.02388	     129.39240	      90.23608	      84.48758	      98.81618	      94.74789	     110.34730
      10.27717	     246.36667	     130.02354	     126.47550	      84.93961	      89.48553	      93.86941	     101.98895	     119.97646
      10.39396	     283.21164	     167.73846	     114.63735	      84.23171	      83.10590	      83.16560	      89.03350	     113.73328
      10.51074	     268.60159	     147.06435	     106.08283	      96.86306	      81.56216	      91.17426	     108.11272	     106.41546
      10.62753	     266.94699	     166.81734	     123.61832	      83.42999	      79.73697	      95.18286	      98.36415	     122.01488
      10.74432	     167.05615	     145.98117	     118.39861	      92.76064	      92.04421	      85.16137	      97.86948	     108.85474
      10.86110	     314.96487	     118.21950	     134.01508	      94.22762	      89.56229	      92.41096	      98.56032	     115.24290
      10.97789	     204.70285	     111.68634	     123.89124	      95.36197	     103.08918	      97.83536	      90.51753	     119.44767
      11.09467	     350.14670	     180.84743	      98.09122	      98.29592	      80.62398	      88.26590	      94.31291	     104.61586
      11.21146	     168.65959	     177.91348	     117.69923	      87.56653	      79.19965	     103.88237	     105.89520	     107.05513
      11.32825	     360.50082	     187.15031	     125.64820	     122.54367	      73.81789	      95.84811	      94.06557	     121.49461
      11.44503	     192.40413	     175.29510	     137.34988	     122.98717	      82.10801	      82.46622	     101.26398	     132.39458
      11.56182	     281.91525	     144.88094	     115.84846	      89.51965	      90.76488	     107.37923	     102.33010	     113.56271
      11.67861	     173.45285	     228.47298	     121.29845	      94.97816	      94.25320	      90.20197	      99.36204	     112.44541
      11.79539	     312.37207	     153.74249	     128.25806	      90.96104	      82.64533	     103.60944	      98.62855	     125.60555
      11.91218	     382.87219	     147.78931	     118.92740	      87.70299	      73.57908	      95.50696	      97.58802	     119.20885
      12.02896	     293.12228	     139.52477	     112.37718	      91.54101	      84.57287	     100.36845	     106.26194	     108.80356
      12.14575	     264.85739	     135.75497	     108.47093	      82.41505	      77.97148	     103.33652	     103.81414	     111.66075
      12.26254	     399.17950	     213.67529	      89.70729	      92.45361	      80.38517	     104.52204	     107.31100	     112.38571
      12.37932	     336.99509	     206.63039	     144.91505	      80.41928	      85.68163	     101.87807	      96.10398	     112.36012
      12.49611	     223.04858	     203.82437	     113.55418	      94.61995	      81.49393	      93.86941	      94.94405	     118.82506
      12.61289	     228.09770	     132.39458	     133.64833	      86.13367	      91.14867	      86.41512	      97.59655	     107.95920
      12.72968	     261.26672	     149.30745	     112.09573	      93.86941	      86.88421	      85.48547	     103.76296	     122.79954
      12.84647	     240.25143	     122.93600	     123.46479	      91.88216	      89.04203	      98.85030	      98.18504	     102.94418
      12.96325	     273.23282	     204.63463	     112.03603	     109.89526	      99.43027	      79.66874	     103.49004	     113.87827
      13.08004	     222.86948	     183.00525	     106.49222	     107.86538	      83.62616	      89.15291	     105.40905	     107.98479
      13.19682	     393.03870	     152.77020	     126.53521	     107.31953	      80.28282	      92.24038	     100.22346	     111.92515
      13.31361	     278.83630	     160.39507	     109.19589	      90.20197	      80.19753	      86.49188	      91.44719	     122.84218
      13.43040	     342.96533	     174.68954	     106.50928	     113.75887	      86.38953	      93.28944	     107.50716	     123.27715
      13.54718	     232.60951	     120.67583	     108.28329	      87.96738	      71.80506	      89.73287	      97.15305	     103.48151
      13.66397	     180.15659	     162.58699	     113.93798	      83.51528	      86.21896	     100.22346	      91.55807	      98.35562
      13.78075	     195.85835	     170.81741	     109.91232	      94.83318	      79.48963	      97.97182	      90.35548	     102.37275
      13.89754	     148.65073	     141.28172	     134.83386	      94.03999	      76.02689	      89.26379	      82.21036	     110.52641
      14.01433	     455.27429	     169.47838	      97.37479	      84.41935	      71.97564	      94.21056	     102.24481	     118.33891
      14.13111	     410.83005	     135.98526	     103.06359	      88.16355	      86.23602	     104.34293	      99.46439	     117.18750
      14.24790	     253.76979	     113.22155	     116.47960	      91.74570	      70.20162	     102.91007	      91.21691	     115.75464
      14.36468	     159.54216	     161.13707	      95.86517	      88.24031	      88.35119	      88.30854	      84.02702	     127.03841
      14.48147	     186.18654	     155.42270	     140.91498	     112.55629	      84.37671	      91.18279	     101.62220	     119.75471
      14.59826	     316.43182	     218.05063	     109.48588	     101.53691	      88.92262	      81.92037	      87.50682	     107.23424
      14.71504	     204.18259	     162.86845	     121.89547	     114.21091	      83.02061	      94.17645	      87.07185	     108.00184
      14.83183	     185.55540	     140.28384	     133.61421	      97.63919	      71.20804	      93.84382	      90.64547	     116.62459
      14.94861	     236.09784	     140.86382	     127.72073	      90.70517	      82.26153	      98.35562	     110.27054	     127.11517
      15.06540	     257.04489	     144.37773	     145.94705	      89.38319	      97.02511	      76.72626	     106.51781	     115.06380
      15.18219	     246.55431	     156.58263	     120.30056	      91.76276	      85.47694	      93.98028	     104.75232	     115.67788
      15.29897	     296.36325	     137.67400	     124.85501	      88.94821	      77.12711	      88.69234	      92.88005	     106.77367
      15.41576	     351.94629	     201.28275	     114.02327	      81.61333	      84.79462	      81.40864	     103.34505	     108.28329
      15.53254	     213.90556	     165.59770	     117.77599	      92.90564	      86.25307	      88.51324	      93.25533	     123.59273
      15.64933	     207.99503	     166.03268	     115.42201	      77.49386	      84.37671	      93.89499	      83.76263	     118.63742
      15.76612	     296.44855	     185.69186	     135.88292	      98.02299	      89.84375	      88.04414	      96.24898	     107.78009
      15.88290	     180.01160	     124.65031	     138.36484	      84.74345	      82.58563	      98.45797	      99.61790	     128.68449
      15.99969	     217.83740	     173.61490	     108.35153	      75.20811	      85.54517	      76.88831	     104.04442	     120.13851
      16.11647	     492.71631	     188.98404	     104.02736	      81.70715	      76.82008	      94.37261	      95.57519	     111.31107
      16.23326	     292.01352	     174.46779	     105.92931	      85.16137	      84.69228	      92.10392	     105.31523	     129.10242
      16.35005	     305.15659	     120.59908	     109.54558	      89.92904	      70.50867	      81.27218	      88.01003	     103.66061
      16.46683	     312.67911	     157.63168	     108.19801	      97.07629	      88.50471	     104.24911	      95.21697	     110.69698
      16.58362	     186.01596	     139.96828	     125.98083	      89.07615	      86.51746	      94.79906	      85.86927	     109.28118
      16.70041	     311.43390	     206.86067	     118.34743	      91.12309	      87.57506	      89.63905	     100.79490	     106.08283
      16.81719	     294.60629	     148.42044	     116.62459	     101.69896	      84.21465	      93.61354	      93.22121	     114.39854
      16.93398	     235.39847	     171.15857	     134.38182	      99.02941	      78.07383	     105.47728	      88.72646	     115.59259
      17.05076	     346.94833	     182.23766	     169.80247	     102.92713	      78.82437	      94.91846	      99.36204	     125.46056
      17.16755	     249.01918	     172.54878	      94.53466	      85.62193	      90.91840	     104.80350	      92.19773	     111.60958
      17.28433	     172.89847	     152.36081	      98.00594	      85.85221	      82.69651	      93.63912	      92.96534	     109.86967
      17.40112	     292.76407	     164.35248	     135.34560	     105.82697	      90.22755	      90.44930	      98.98676	     109.18736
      17.51791	     228.38770	     157.98990	     103.78002	      97.05923	      81.12718	      93.10180	      86.77334	     116.01051
      17.63469	     249.30916	     135.82321	     137.08549	      96.35133	      71.87329	      82.92679	      97.80977	     130.55234
      17.75148	     212.54947	     153.27341	     152.09641	      84.88844	      83.24236	     106.66280	     104.86320	     123.54155
      17.86827	     188.91580	     132.85515	     157.35023	      93.31503	      76.89684	     104.59027	      96.82041	     120.80376
      17.98505	     194.21227	     164.69363	     105.17023	      91.58365	      78.37234	     103.83972	      95.89929	     132.11313
      18.10184	     219.50055	     125.20470	     102.17658	      95.92488	      83.23383	     100.18934	      76.17188	     117.60542
      18.21862	     296.76413	     163.97720	     140.53119	      87.21684	      99.39615	      87.93327	      90.29578	     109.72469
      18.33541	     314.97339	     195.37221	     139.06421	     101.89513	      99.37057	      98.20210	      89.04203	     120.30909
      18.45220	     279.32245	     143.61012	     118.59477	      83.77968	      84.69228	      90.64547	      87.93327	     120.96581
      18.56898	     192.19092	     186.16948	     132.38605	      92.00157	      91.11456	      97.28098	      86.19337	     103.79708
      18.68577	     137.85310	     118.14274	     116.94869	      91.06339	      83.71998	      84.38523	      94.15086	     108.70975
      18.80255	     202.28917	     160.18184	     131.78903	      90.32990	      98.17651	      87.91621	     109.97202	     104.47086
      18.91934	     251.37315	     143.21779	     133.84450	      97.36626	      96.93129	      98.89294	     109.57970	     127.84013
      19.03613	     187.44029	     143.46513	     118.75682	      99.72025	     103.08918	      90.03139	     105.68198	     118.46684
      19.15291	     273.51425	     177.17146	     113.98915	      89.94610	      76.27422	      81.86920	      97.59655	     103.98472
      19.26970	     133.60570	     134.07478	     128.16423	      93.52825	      86.85010	      95.66048	      91.69453	     116.80370
      19.38648	     385.64410	     199.26993	     117.52013	      99.02088	      90.58577	      79.59197	      85.17843	     108.97414
      19.50327	     281.28412	     159.15837	     124.29210	      89.82669	      81.90331	      92.16362	     101.90366	     139.33713
      19.62006	     351.21280	     148.24986	      99.15734	     123.58420	      82.47475	     107.95920	     108.14684	     112.77805
      19.73684	     256.27728	     121.90400	     151.46527	      84.18054	      87.53241	      93.23827	      96.95688	     108.95708
      19.85363	     234.71616	     203.03970	     127.08958	      90.76488	      71.10569	      98.75648	     104.06148	     119.84853
      19.97042	     301.07123	     168.19051	     123.32833	      91.89922	      74.51727	      95.47285	      98.91000	     104.51351
      20.08720	     216.85658	     109.52852	     106.73103	      94.33849	      75.31046	      87.97591	      92.46214	     112.52218
      20.20399	     198.19528	     156.74467	     132.40311	      88.00150	      81.51952	      99.48997	      91.86510	     133.62274
      20.32077	     197.35944	     169.69159	     108.10419	      98.26180	      69.29755	      99.21704	      90.55165	     129.66533
      20.43756	     220.22551	     157.12848	     131.05554	     101.53691	      76.48744	      93.69030	     110.59464	     130.27087
      20.55434	     243.16832	     148.91512	     110.31318	     102.95271	      85.36606	      95.09757	      94.54319	     105.34081
      20.67113	     370.41144	     156.25000	     111.93368	      76.42774	      88.20619	      93.79265	      84.13789	     134.28801
      20.78792	     215.35548	     154.57832	     105.22994	      90.33842	      99.89083	      91.25955	      98.27033	     111.63517
      20.90470	     212.45564	     136.33495	     143.93422	      90.34695	      77.49386	      98.80766	     100.16376	     123.26863
      21.02149	     371.70782	     195.28691	     136.71022	     107.69480	      81.64745	      88.87998	     103.89090	     130.33911
      21.13828	     171.82382	     161.46118	     114.15120	     103.72032	      82.87561	     108.43682	      95.38756	     110.33877
      21.25506	     401.54202	     164.88980	     136.41171	      92.28303	      79.97578	      78.17617	      96.18928	     132.90631
      21.37185	     243.99564	     174.94542	     123.03835	      85.96309	      75.63455	      92.15509	     103.79708	     102.54333
      21.48863	     158.28842	     170.30568	     115.38789	      93.62206	      82.23595	     106.04871	     103.23417	     103.03800
      21.60542	     172.07970	     165.99004	     136.45435	     102.61156	      79.29346	      92.53889	      83.57499	      94.85023
      21.72220	     203.95230	     118.83358	     111.12343	      95.38756	      73.05029	     107.02954	      98.48356	     116.92310
      21.83899	     256.41376	     165.75975	     104.96555	      90.86722	      78.79878	      81.80097	      97.90359	     131.84872
      21.95578	     200.41280	     123.49038	     137.35841	     107.01249	      91.05486	     104.75232	     105.45169	     125.76760
      22.07256	     305.89008	     178.07553	      96.38544	     103.92501	      85.91191	      93.00798	      86.35542	     113.26419
      22.18935	     315.19513	     150.01535	     124.94030	      86.35542	      92.93975	      99.48997	      94.16792	     103.11477
      22.30614	     224.82260	     116.75253	     129.06830	      89.55376	     100.11258	     100.85460	      99.06352	     110.95285
      22.42292	     206.41716	     171.84088	     134.95326	      85.94603	     102.95271	      92.30861	      87.07185	     111.54135
      22.53971	     276.82349	     177.72585	     120.47114	     102.88448	      94.16792	      98.14240	      98.53473	     124.24093
      22.65649	     239.56912	     150.46739	     138.39896	      86.80745	      83.30206	     103.55827	     101.19576	     121.03405
      22.77328	     245.19821	     185.29100	     110.38142	      84.46200	      72.46179	      95.32785	     101.33222	     126.34757
      22.89007	     346.74365	     147.19228	     130.23677	      80.60692	      80.26576	     101.81837	      98.78207	     114.92733
      23.00685	     194.82635	     133.97243	     124.21534	      95.34491	      79.75403	      99.15734	      87.33624	     106.02313
      23.12364	     216.50690	     197.13770	      96.08693	      96.81189	      85.07608	      97.09334	      83.59204	     129.91266
      23.24042	     274.41833	     159.27777	     156.41205	      81.34894	      80.33399	      91.72012	     103.35358	     123.94241
      23.35721	     376.85077	     199.37227	     113.86974	      95.74577	      69.71548	      94.44084	      94.31291	     114.38148
      23.47400	     186.31448	     177.85378	     135.35413	     105.34934	      85.42577	      92.72653	      98.92706	     119.34532
      23.59078	     324.03113	     158.07520	     115.26849	     106.88455	      79.63462	      88.74352	     111.60958	     111.01256
      23.70757	     230.42610	     180.53186	     103.35358	      87.15714	      72.82001	      91.50689	     115.62671	     121.06816
      23.82435	     336.84155	     124.82942	     126.74843	     101.42604	      83.48117	     104.92290	      93.52825	     113.80151
      23.94114	     247.85924	     188.49788	     123.08952	     111.83986	      82.23595	     105.22141	      98.91853	     112.67570
      24.05793	     243.84212	     145.00887	     120.63319	     108.84621	      87.10596	      85.20401	     100.93136	     109.54558
      24.17471	     228.93355	     183.89226	     137.39253	      95.33638	      86.09102	      96.97394	     102.90154	     121.88694
      24.29150	     273.24133	     175.46568	      87.94180	      83.37029	      85.33195	      97.11893	     100.05288	     122.97012
      24.40828	     165.09450	     163.08168	     112.36865	      98.38974	      79.31905	      94.41526	      96.40250	     110.42406
      24.52507	     237.59894	     158.77457	     120.00204	     103.11477	      77.96295	     100.01023	      93.03357	     125.24734
      24.64186	     253.70155	     201.56421	     141.30731	      84.81168	      84.32553	      82.82444	     103.31946	     123.54155
      24.75864	     310.28247	     143.43954	     131.16641	      91.19132	      68.23997	      98.10828	     109.34088	     125.34969
      24.87543	     233.07860	     166.17767	     106.31311	     101.92924	      88.30854	      95.37903	     113.30684	     116.34314
      24.99221	     184.96690	     159.38011	     157.60609	      82.63680	      73.54497	      93.28944	      99.66055	     109.84409
      25.10900	     212.28506	     169.28221	     118.05745	      90.17638	      74.19316	     111.11490	      82.00566	     118.07451
      25.22579	     185.12042	     154.01543	     112.00191	      89.22967	      82.93532	      84.62405	     109.86115	     118.23656
      25.34257	     226.22134	     156.93231	     110.85050	      77.59621	      87.89915	      92.04421	      87.43859	     116.13844
      25.45936	     369.49884	     155.53357	     138.97891	      88.13796	      72.91383	      94.68818	     100.07847	     114.26208
      25.57615	     263.68893	     129.10242	     125.85289	      82.20183	      87.60064	     101.93777	     100.67549	     112.45394
      25.69293	     370.66730	      96.80336	      91.89069	     101.83543	      98.99529	     102.80772	      99.63496	     127.85719
      25.80972	     225.44521	     159.10719	      87.06332	     103.00389	      92.41949	      81.74979	      99.43027	     107.62657
      25.92650	     328.90112	     166.58707	     134.35623	      94.23615	      77.38298	      94.48349	      97.12746	     118.91888
      26.04329	     298.31638	     111.63517	     103.45592	      91.29367	      92.24038	      89.03350	      87.84798	     106.72250
      26.16007	     170.81741	     156.42058	     107.93361	      99.10617	      69.09286	      87.22536	     102.94418	     110.08290
      26.27686	     222.89507	     154.57832	     116.83781	      79.10583	      76.13776	      97.88653	     107.43040	     118.79947
      26.39365	     311.01596	     133.34129	     112.74393	      96.12104	     100.61579	      95.19139	      91.13161	     112.20660
      26.51043	     318.36789	     183.78992	      92.72653	      94.27879	      85.95456	      96.64130	      97.90359	     113.67358
      26.62722	     185.13748	     135.86586	     132.32635	      93.20415	      80.08665	      98.28739	     102.91860	     125.02559
      26.74401	     179.81543	     134.27948	     100.21493	      91.68600	      83.78821	      93.46854	     102.06570	     111.75457
      26.86079	     192.93292	     161.72557	     125.40086	     104.15530	      95.53255	      92.48772	      94.16792	     122.05752
      26.97758	     186.51918	     163.66164	     100.29169	      99.74583	      87.03773	      91.91628	      89.76699	     125.51173
      27.09436	     317.04593	     182.08414	     115.83140	      96.91423	      87.71152	      98.99529	     101.83543	     116.86340
      27.21115	     422.50613	     128.72714	     113.61388	      97.88653	      91.44719	      83.48117	      98.10828	     117.58836
      27.32793	     270.78500	     159.82362	     113.11920	      89.02497	      81.89479	      94.02293	      86.02279	     107.54128
      27.44472	     155.75533	     146.20293	      98.75648	      97.86948	      86.66246	      89.64758	      95.30227	     116.20667
      27.56151	     317.57471	     139.08980	     131.52463	      88.62411	      74.51727	      93.76706	      97.09334	     111.00403
      27.67829	     300.46567	     128.85507	     136.59935	      95.34491	      82.82444	      92.56448	     105.69903	     120.50526
      27.79508	     215.24461	     154.39922	     124.34327	      83.27647	      73.10146	     107.57539	      91.50689	     113.60535
      27.91187	     326.45334	     209.08672	     124.70148	      89.17849	      97.57096	     104.99966	     113.90386	     122.27074
      28.02865	     254.34976	     148.65073	     119.30267	      85.80956	      76.78596	      85.39165	      96.28309	     114.20238
      28.14544	     214.91199	     166.57854	     126.24522	     108.49652	      86.73069	      94.49202	      94.86729	     109.26412
      28.26222	     228.70326	     141.86169	     115.89964	      83.54940	      78.95231	      90.21902	     105.12759	     111.96780
      28.37901	     235.24495	     215.16785	     110.23642	      98.41532	      90.35548	      95.07198	      98.91853	     121.50314
      28.49580	     208.95026	     151.06441	     147.90018	      96.65836	      79.59197	      99.19999	     100.47932	     114.62882
      28.61258	     209.77757	     156.31824	     130.37323	      85.49400	      87.21684	     104.93996	      85.28930	     116.01904
      28.72937	     356.86749	     199.60255	     116.98280	      90.65400	      84.41082	      84.45347	     100.35139	     110.41553
      28.84615	     321.63449	     146.87671	     121.07669	      87.98444	      88.06973	      96.72659	     103.08918	     110.01467
      28.96294	     137.65694	     137.80193	     131.28583	      87.16566	      78.00559	      87.49829	      86.73922	     107.98479
      29.07973	     254.17065	     153.30753	      97.39185	      97.37479	      77.93736	      99.11470	      97.87801	     117.94657
      29.19651	     249.68443	     144.29243	     128.13011	     105.42610	      83.02061	     101.81837	      99.86524	     116.85487
      29.31330	     169.76836	     135.87439	      94.84171	     121.28992	      79.90755	     103.62650	      86.97803	     117.93805
      29.43008	     232.83980	     137.53752	     121.17051	     112.33454	      90.92693	      86.36395	      93.36620	     132.48840
      29.54687	     268.99393	     176.19064	     141.76788	      95.46432	      78.44910	      85.81809	      82.83297	     116.17255
      29.66366	     229.17235	     178.67256	     128.91478	     107.35365	      77.50239	      90.42371	      97.57949	     110.09996

Monitor Diode	  23013.33
