ALV-7004 CGS-8F Data, Single Run Data
Date :	"05.01.2021"
Time :	"15:57:40"
Samplename : 	"7 2021 MW002-03"
SampMemo(0) : 	"nach ca 3 Monaten, kein Detektor abgeschwächt, "
SampMemo(1) : 	"unverdünnt"
SampMemo(2) : 	""
SampMemo(3) : 	""
SampMemo(4) : 	""
SampMemo(5) : 	""
SampMemo(6) : 	""
SampMemo(7) : 	""
SampMemo(8) : 	""
SampMemo(9) : 	""
Temperature [K] :	     292.93468
Viscosity [cp]  :	       1.00705
Refractive Index:	       1.33200
Wavelength [nm] :	     632.80000
Angle(1)[°]     :	      34.00000
Angle(2)[°]     :	      50.00000
Angle(3)[°]     :	      66.00000
Angle(4)[°]     :	      82.00000
Angle(5)[°]     :	      98.00000
Angle(6)[°]     :	     114.00000
Angle(7)[°]     :	     130.00000
Angle(8)[°]     :	     146.00000
Duration [s]    :	          30.0
Runs            :	         1
Mode            :	"8 x AUTO, 100 ns STC"
MeanCR1 [kHz]   :	     134.13045
MeanCR2 [kHz]   :	     105.01161
MeanCR3 [kHz]   :	      95.19587
MeanCR4 [kHz]   :	      81.53889
MeanCR5 [kHz]   :	      87.28458
MeanCR6 [kHz]   :	     109.75345
MeanCR7 [kHz]   :	     131.54471
MeanCR8 [kHz]   :	     194.24171
Atten[1]        :	       1.00000
Atten[2]        :	       1.00000
Atten[3]        :	       1.00000
RelSens[1]      :	       1.00000
RelSens[2]      :	       1.00000
RelSens[3]      :	       1.00000
RelSens[4]      :	       1.00000
RelSens[5]      :	       1.00000
RelSens[6]      :	       1.00000
RelSens[7]      :	       1.00000
RelSens[8]      :	       1.00000
DC[1][kHz]      :	       0.00000
DC[2][kHz]      :	       0.00000
DC[3][kHz]      :	       0.00000
DC[4][kHz]      :	       0.00000
DC[5][kHz]      :	       0.00000
DC[6][kHz]      :	       0.00000
DC[7][kHz]      :	       0.00000
DC[8][kHz]      :	       0.00000

"Correlation"
  1.00000E-004	  5.67101E-001	  6.60166E-001	  6.27114E-001	  6.52317E-001	  6.66211E-001	  6.93074E-001	  7.17763E-001	  6.32100E-001
  2.00000E-004	  9.59393E-001	  9.73269E-001	  9.73050E-001	  9.90361E-001	  9.91722E-001	  9.72271E-001	  1.00733E+000	  9.79338E-001
  3.00000E-004	  9.54455E-001	  9.54475E-001	  9.75887E-001	  9.81530E-001	  9.79459E-001	  9.56357E-001	  9.89599E-001	  9.64988E-001
  4.00000E-004	  9.47387E-001	  9.45958E-001	  9.76821E-001	  9.60412E-001	  9.78470E-001	  9.63781E-001	  9.86371E-001	  9.65035E-001
  5.00000E-004	  9.47780E-001	  9.49667E-001	  9.73852E-001	  9.71256E-001	  9.78595E-001	  9.58123E-001	  9.81722E-001	  9.60165E-001
  6.00000E-004	  9.46317E-001	  9.45014E-001	  9.88330E-001	  9.74670E-001	  9.73404E-001	  9.63588E-001	  9.90385E-001	  9.63167E-001
  7.00000E-004	  9.46123E-001	  9.50525E-001	  9.75389E-001	  9.73444E-001	  9.72502E-001	  9.65317E-001	  9.83536E-001	  9.66013E-001
  8.00000E-004	  9.52778E-001	  9.46430E-001	  9.71735E-001	  9.66857E-001	  9.59362E-001	  9.53045E-001	  9.79590E-001	  9.63891E-001
  9.00000E-004	  9.49031E-001	  9.47933E-001	  9.68330E-001	  9.71671E-001	  9.76314E-001	  9.46054E-001	  9.84277E-001	  9.62908E-001
  1.00000E-003	  9.42111E-001	  9.41420E-001	  9.67998E-001	  9.73729E-001	  9.79825E-001	  9.37628E-001	  9.80346E-001	  9.58163E-001
  1.10000E-003	  9.44293E-001	  9.61769E-001	  9.72925E-001	  9.55740E-001	  9.79524E-001	  9.55989E-001	  9.62293E-001	  9.59294E-001
  1.20000E-003	  9.44002E-001	  9.47374E-001	  9.54932E-001	  9.70840E-001	  9.57456E-001	  9.50286E-001	  9.85849E-001	  9.53270E-001
  1.30000E-003	  9.45495E-001	  9.58744E-001	  9.66586E-001	  9.68126E-001	  9.81079E-001	  9.37518E-001	  9.77019E-001	  9.54271E-001
  1.40000E-003	  9.47024E-001	  9.57549E-001	  9.60523E-001	  9.53902E-001	  9.83386E-001	  9.52457E-001	  9.75145E-001	  9.65373E-001
  1.50000E-003	  9.38478E-001	  9.46931E-001	  9.71596E-001	  9.64275E-001	  9.80176E-001	  9.56247E-001	  9.72756E-001	  9.57274E-001
  1.60000E-003	  9.37868E-001	  9.44898E-001	  9.59125E-001	  9.69462E-001	  9.67263E-001	  9.53487E-001	  9.78516E-001	  9.53716E-001
  1.80000E-003	  9.42256E-001	  9.45833E-001	  9.74088E-001	  9.62109E-001	  9.80829E-001	  9.54021E-001	  9.75583E-001	  9.57469E-001
  2.00000E-003	  9.45924E-001	  9.46199E-001	  9.71056E-001	  9.66201E-001	  9.74860E-001	  9.47600E-001	  9.82327E-001	  9.56551E-001
  2.20000E-003	  9.43582E-001	  9.49060E-001	  9.78198E-001	  9.66617E-001	  9.75663E-001	  9.60552E-001	  9.68462E-001	  9.53493E-001
  2.40000E-003	  9.39720E-001	  9.40899E-001	  9.75804E-001	  9.55719E-001	  9.62146E-001	  9.53193E-001	  9.68190E-001	  9.54855E-001
  2.60000E-003	  9.43357E-001	  9.37344E-001	  9.67222E-001	  9.53924E-001	  9.58585E-001	  9.49495E-001	  9.70519E-001	  9.52251E-001
  2.80000E-003	  9.43352E-001	  9.45226E-001	  9.63527E-001	  9.61102E-001	  9.53771E-001	  9.53285E-001	  9.62914E-001	  9.56913E-001
  3.00000E-003	  9.39927E-001	  9.41815E-001	  9.64703E-001	  9.59417E-001	  9.71701E-001	  9.50856E-001	  9.69007E-001	  9.55384E-001
  3.20000E-003	  9.39598E-001	  9.41761E-001	  9.59001E-001	  9.50959E-001	  9.75213E-001	  9.50046E-001	  9.63745E-001	  9.50593E-001
  3.60000E-003	  9.42079E-001	  9.46858E-001	  9.59084E-001	  9.56627E-001	  9.58323E-001	  9.49255E-001	  9.58166E-001	  9.50343E-001
  4.00000E-003	  9.38473E-001	  9.48655E-001	  9.64773E-001	  9.56550E-001	  9.60780E-001	  9.49191E-001	  9.60079E-001	  9.47975E-001
  4.40000E-003	  9.40005E-001	  9.46849E-001	  9.68510E-001	  9.52775E-001	  9.61746E-001	  9.55759E-001	  9.67102E-001	  9.46279E-001
  4.80000E-003	  9.40055E-001	  9.46333E-001	  9.60240E-001	  9.48092E-001	  9.53721E-001	  9.48685E-001	  9.59376E-001	  9.46019E-001
  5.20000E-003	  9.37711E-001	  9.44074E-001	  9.60676E-001	  9.53344E-001	  9.50297E-001	  9.49964E-001	  9.58257E-001	  9.45514E-001
  5.60000E-003	  9.42185E-001	  9.42913E-001	  9.61721E-001	  9.56101E-001	  9.50297E-001	  9.34252E-001	  9.53630E-001	  9.40718E-001
  6.00000E-003	  9.41242E-001	  9.43216E-001	  9.65451E-001	  9.50225E-001	  9.59589E-001	  9.41593E-001	  9.57562E-001	  9.40737E-001
  6.40000E-003	  9.42284E-001	  9.45745E-001	  9.57202E-001	  9.54148E-001	  9.56050E-001	  9.41647E-001	  9.57932E-001	  9.42380E-001
  7.20000E-003	  9.42328E-001	  9.42269E-001	  9.59046E-001	  9.50679E-001	  9.52251E-001	  9.34187E-001	  9.56537E-001	  9.34867E-001
  8.00000E-003	  9.38541E-001	  9.43149E-001	  9.59655E-001	  9.45471E-001	  9.52558E-001	  9.38888E-001	  9.45542E-001	  9.32819E-001
  8.80000E-003	  9.38581E-001	  9.41325E-001	  9.57883E-001	  9.45400E-001	  9.45768E-001	  9.34596E-001	  9.47847E-001	  9.29849E-001
  9.60000E-003	  9.37384E-001	  9.45935E-001	  9.57907E-001	  9.45438E-001	  9.47887E-001	  9.35268E-001	  9.42008E-001	  9.29455E-001
  1.04000E-002	  9.38053E-001	  9.39877E-001	  9.56029E-001	  9.45334E-001	  9.47165E-001	  9.27200E-001	  9.40035E-001	  9.24894E-001
  1.12000E-002	  9.38163E-001	  9.38451E-001	  9.53378E-001	  9.41991E-001	  9.49485E-001	  9.29403E-001	  9.38587E-001	  9.24961E-001
  1.20000E-002	  9.39538E-001	  9.36951E-001	  9.48606E-001	  9.30972E-001	  9.47973E-001	  9.22330E-001	  9.34520E-001	  9.18459E-001
  1.28000E-002	  9.38725E-001	  9.37518E-001	  9.52203E-001	  9.38243E-001	  9.42491E-001	  9.21161E-001	  9.31817E-001	  9.14864E-001
  1.44000E-002	  9.39183E-001	  9.38164E-001	  9.53262E-001	  9.36690E-001	  9.36882E-001	  9.19480E-001	  9.26344E-001	  9.08755E-001
  1.60000E-002	  9.36685E-001	  9.35959E-001	  9.46436E-001	  9.29036E-001	  9.38186E-001	  9.13372E-001	  9.20495E-001	  9.03343E-001
  1.76000E-002	  9.35065E-001	  9.34103E-001	  9.41308E-001	  9.29561E-001	  9.30637E-001	  9.09076E-001	  9.16230E-001	  8.96018E-001
  1.92000E-002	  9.35091E-001	  9.35103E-001	  9.41013E-001	  9.28412E-001	  9.25954E-001	  9.00199E-001	  9.10598E-001	  8.89338E-001
  2.08000E-002	  9.35108E-001	  9.31684E-001	  9.41195E-001	  9.23674E-001	  9.16310E-001	  9.01977E-001	  9.05945E-001	  8.86401E-001
  2.24000E-002	  9.32966E-001	  9.34059E-001	  9.39462E-001	  9.21822E-001	  9.19432E-001	  8.96460E-001	  8.98495E-001	  8.80317E-001
  2.40000E-002	  9.34578E-001	  9.28401E-001	  9.39289E-001	  9.16195E-001	  9.15133E-001	  8.89041E-001	  8.94167E-001	  8.74311E-001
  2.56000E-002	  9.32536E-001	  9.26749E-001	  9.38365E-001	  9.16384E-001	  9.13263E-001	  8.84434E-001	  8.87424E-001	  8.68769E-001
  2.88000E-002	  9.33261E-001	  9.25016E-001	  9.32146E-001	  9.08990E-001	  9.03779E-001	  8.75128E-001	  8.79982E-001	  8.56067E-001
  3.20000E-002	  9.31232E-001	  9.22750E-001	  9.26926E-001	  9.02528E-001	  8.97184E-001	  8.68470E-001	  8.67987E-001	  8.46767E-001
  3.52000E-002	  9.29479E-001	  9.19600E-001	  9.26969E-001	  8.97006E-001	  8.89508E-001	  8.55657E-001	  8.58748E-001	  8.36808E-001
  3.84000E-002	  9.28217E-001	  9.18606E-001	  9.22050E-001	  8.92701E-001	  8.82399E-001	  8.48518E-001	  8.49989E-001	  8.23560E-001
  4.16000E-002	  9.26680E-001	  9.15906E-001	  9.18780E-001	  8.87664E-001	  8.78553E-001	  8.39488E-001	  8.39609E-001	  8.14098E-001
  4.48000E-002	  9.24399E-001	  9.13332E-001	  9.13021E-001	  8.82012E-001	  8.67572E-001	  8.32214E-001	  8.29064E-001	  8.03459E-001
  4.80000E-002	  9.23675E-001	  9.10544E-001	  9.08918E-001	  8.74866E-001	  8.59617E-001	  8.26495E-001	  8.20094E-001	  7.92655E-001
  5.12000E-002	  9.22653E-001	  9.08286E-001	  9.05145E-001	  8.70050E-001	  8.53842E-001	  8.16864E-001	  8.10943E-001	  7.82479E-001
  5.76000E-002	  9.19577E-001	  9.02904E-001	  8.96619E-001	  8.60290E-001	  8.39895E-001	  7.97997E-001	  7.91365E-001	  7.63413E-001
  6.40000E-002	  9.17453E-001	  8.99434E-001	  8.89420E-001	  8.49013E-001	  8.24703E-001	  7.80965E-001	  7.71960E-001	  7.44437E-001
  7.04000E-002	  9.14289E-001	  8.94605E-001	  8.81713E-001	  8.40916E-001	  8.12631E-001	  7.69330E-001	  7.55110E-001	  7.24009E-001
  7.68000E-002	  9.12530E-001	  8.90033E-001	  8.72366E-001	  8.27752E-001	  8.00363E-001	  7.51338E-001	  7.36527E-001	  7.05207E-001
  8.32000E-002	  9.11183E-001	  8.84690E-001	  8.65507E-001	  8.20084E-001	  7.85292E-001	  7.38481E-001	  7.21937E-001	  6.86778E-001
  8.96000E-002	  9.08251E-001	  8.79446E-001	  8.57104E-001	  8.06916E-001	  7.72588E-001	  7.21973E-001	  7.04300E-001	  6.70352E-001
  9.60000E-002	  9.05216E-001	  8.74177E-001	  8.50787E-001	  7.98101E-001	  7.60430E-001	  7.08359E-001	  6.89635E-001	  6.52328E-001
  1.02400E-001	  9.02905E-001	  8.69774E-001	  8.44021E-001	  7.85712E-001	  7.47064E-001	  6.93735E-001	  6.73709E-001	  6.35982E-001
  1.15200E-001	  8.97671E-001	  8.60072E-001	  8.28999E-001	  7.65147E-001	  7.23171E-001	  6.66121E-001	  6.41850E-001	  6.03162E-001
  1.28000E-001	  8.92867E-001	  8.50491E-001	  8.14575E-001	  7.47648E-001	  6.98142E-001	  6.39750E-001	  6.13956E-001	  5.73482E-001
  1.40800E-001	  8.88160E-001	  8.41699E-001	  8.01831E-001	  7.30854E-001	  6.76103E-001	  6.15271E-001	  5.86553E-001	  5.45027E-001
  1.53600E-001	  8.83575E-001	  8.32342E-001	  7.88590E-001	  7.11214E-001	  6.55346E-001	  5.91581E-001	  5.60089E-001	  5.17440E-001
  1.66400E-001	  8.78418E-001	  8.24065E-001	  7.73993E-001	  6.92891E-001	  6.35437E-001	  5.68580E-001	  5.34048E-001	  4.91270E-001
  1.79200E-001	  8.73248E-001	  8.15603E-001	  7.60354E-001	  6.75541E-001	  6.15579E-001	  5.45487E-001	  5.09676E-001	  4.66873E-001
  1.92000E-001	  8.69065E-001	  8.06110E-001	  7.48526E-001	  6.59402E-001	  5.93400E-001	  5.23574E-001	  4.87596E-001	  4.44966E-001
  2.04800E-001	  8.64247E-001	  7.98304E-001	  7.35775E-001	  6.43363E-001	  5.74588E-001	  5.03806E-001	  4.66275E-001	  4.23636E-001
  2.30400E-001	  8.55384E-001	  7.80922E-001	  7.10116E-001	  6.11169E-001	  5.37877E-001	  4.65576E-001	  4.26777E-001	  3.82410E-001
  2.56000E-001	  8.45533E-001	  7.65439E-001	  6.86399E-001	  5.81835E-001	  5.03766E-001	  4.30162E-001	  3.89513E-001	  3.46367E-001
  2.81600E-001	  8.36722E-001	  7.49538E-001	  6.63731E-001	  5.53725E-001	  4.71745E-001	  3.97684E-001	  3.55374E-001	  3.11321E-001
  3.07200E-001	  8.27672E-001	  7.33830E-001	  6.39859E-001	  5.25857E-001	  4.43314E-001	  3.67814E-001	  3.24412E-001	  2.81084E-001
  3.32800E-001	  8.18769E-001	  7.18307E-001	  6.17926E-001	  4.99996E-001	  4.15136E-001	  3.40931E-001	  2.96594E-001	  2.53832E-001
  3.58400E-001	  8.09982E-001	  7.03043E-001	  5.98089E-001	  4.76159E-001	  3.88826E-001	  3.15116E-001	  2.70604E-001	  2.29688E-001
  3.84000E-001	  8.01028E-001	  6.88918E-001	  5.77126E-001	  4.53915E-001	  3.64639E-001	  2.91744E-001	  2.48150E-001	  2.06901E-001
  4.09600E-001	  7.92743E-001	  6.74201E-001	  5.57328E-001	  4.32086E-001	  3.42994E-001	  2.70797E-001	  2.27209E-001	  1.88294E-001
  4.60800E-001	  7.76163E-001	  6.46175E-001	  5.19990E-001	  3.91042E-001	  3.02121E-001	  2.33233E-001	  1.90094E-001	  1.55166E-001
  5.12000E-001	  7.59590E-001	  6.19225E-001	  4.85085E-001	  3.54838E-001	  2.66232E-001	  2.00007E-001	  1.58825E-001	  1.28184E-001
  5.63200E-001	  7.43393E-001	  5.92719E-001	  4.52478E-001	  3.20778E-001	  2.34971E-001	  1.69825E-001	  1.33317E-001	  1.05882E-001
  6.14400E-001	  7.27686E-001	  5.67705E-001	  4.22130E-001	  2.90620E-001	  2.07206E-001	  1.45865E-001	  1.12525E-001	  8.75934E-002
  6.65600E-001	  7.12253E-001	  5.44100E-001	  3.94464E-001	  2.62931E-001	  1.84432E-001	  1.24447E-001	  9.42474E-002	  7.17664E-002
  7.16800E-001	  6.97224E-001	  5.20968E-001	  3.68405E-001	  2.39435E-001	  1.63711E-001	  1.06918E-001	  7.92776E-002	  5.93638E-002
  7.68000E-001	  6.82606E-001	  4.99166E-001	  3.44845E-001	  2.17881E-001	  1.45031E-001	  9.13034E-002	  6.64994E-002	  4.91979E-002
  8.19200E-001	  6.68331E-001	  4.78415E-001	  3.23336E-001	  1.98620E-001	  1.28565E-001	  7.86617E-002	  5.62147E-002	  4.14555E-002
  9.21600E-001	  6.40233E-001	  4.38848E-001	  2.83536E-001	  1.63534E-001	  1.01977E-001	  5.87648E-002	  3.92438E-002	  2.97247E-002
  1.02400E+000	  6.13740E-001	  4.03046E-001	  2.47963E-001	  1.35181E-001	  8.17009E-002	  4.33071E-002	  2.71186E-002	  2.17396E-002
  1.12640E+000	  5.88413E-001	  3.69185E-001	  2.17293E-001	  1.11919E-001	  6.51713E-002	  3.10093E-002	  1.93240E-002	  1.62716E-002
  1.22880E+000	  5.64466E-001	  3.38250E-001	  1.89937E-001	  9.37943E-002	  5.17996E-002	  2.20527E-002	  1.45245E-002	  1.16943E-002
  1.33120E+000	  5.41491E-001	  3.11109E-001	  1.66665E-001	  7.84814E-002	  4.19685E-002	  1.48706E-002	  1.01611E-002	  1.02553E-002
  1.43360E+000	  5.19740E-001	  2.86674E-001	  1.45903E-001	  6.58265E-002	  3.45904E-002	  1.03448E-002	  6.78336E-003	  7.93216E-003
  1.53600E+000	  4.98565E-001	  2.64063E-001	  1.28249E-001	  5.41114E-002	  2.79352E-002	  6.96728E-003	  3.68436E-003	  6.33414E-003
  1.63840E+000	  4.78808E-001	  2.43574E-001	  1.12895E-001	  4.55493E-002	  2.36299E-002	  4.85160E-003	  2.53108E-003	  5.67125E-003
  1.84320E+000	  4.41636E-001	  2.06676E-001	  8.73401E-002	  3.13174E-002	  1.50735E-002	  1.63478E-003	  1.73110E-003	  4.70425E-003
  2.04800E+000	  4.07676E-001	  1.75602E-001	  6.92786E-002	  2.04633E-002	  9.51850E-003	  9.13533E-004	  1.25915E-003	  6.19121E-003
  2.25280E+000	  3.76871E-001	  1.49088E-001	  5.51762E-002	  1.09537E-002	  5.46669E-003	  1.39678E-003	  3.27656E-004	  5.96574E-003
  2.45760E+000	  3.48440E-001	  1.27231E-001	  4.42192E-002	  4.77971E-003	  3.40641E-003	  1.05406E-003	 -1.65764E-003	  3.57452E-003
  2.66240E+000	  3.21866E-001	  1.09166E-001	  3.66546E-002	  1.39978E-003	  2.94648E-003	  4.77218E-004	 -3.74701E-003	  3.57519E-003
  2.86720E+000	  2.96694E-001	  9.39566E-002	  3.10509E-002	  5.39624E-004	  2.82297E-003	 -1.32113E-003	 -2.86497E-003	  2.72058E-003
  3.07200E+000	  2.73680E-001	  8.05648E-002	  2.49952E-002	  7.40346E-004	  3.59249E-003	 -9.72810E-004	 -9.44722E-004	  2.40084E-003
  3.27680E+000	  2.52540E-001	  7.00655E-002	  2.18783E-002	  2.25694E-003	  3.16843E-003	 -1.10254E-003	 -4.68814E-004	  4.01428E-003
  3.68640E+000	  2.13750E-001	  5.31631E-002	  1.81871E-002	  2.48417E-003	  8.58009E-004	 -1.60945E-003	 -3.27316E-003	  6.20203E-003
  4.09600E+000	  1.82051E-001	  4.06873E-002	  1.69146E-002	  2.13001E-003	 -2.25738E-003	 -1.21772E-004	 -1.03070E-003	  8.35538E-004
  4.50560E+000	  1.54612E-001	  3.08225E-002	  1.19366E-002	  2.00363E-003	 -4.88456E-003	  2.58280E-003	  6.31215E-004	 -3.70515E-003
  4.91520E+000	  1.31185E-001	  2.35491E-002	  8.02159E-003	  2.71105E-003	 -5.68964E-003	  4.38508E-003	  2.22667E-003	 -6.25864E-003
  5.32480E+000	  1.12728E-001	  1.80960E-002	  2.77211E-003	  1.82469E-003	 -4.66893E-003	  4.96224E-003	 -1.92580E-003	 -3.57826E-003
  5.73440E+000	  9.72576E-002	  1.49225E-002	  8.07934E-004	  7.51450E-004	  6.41254E-004	  6.06602E-003	 -3.28850E-003	  1.24353E-003
  6.14400E+000	  8.25907E-002	  1.32690E-002	  1.36895E-003	 -1.19164E-003	  4.64625E-003	  1.25990E-003	 -4.28923E-003	  1.97209E-004
  6.55360E+000	  6.98377E-002	  1.25069E-002	  1.20444E-003	 -3.60913E-003	  3.02642E-003	 -1.23855E-003	 -2.81657E-003	  1.57471E-003
  7.37280E+000	  5.12358E-002	  9.82650E-003	 -1.91420E-003	 -1.90460E-003	 -1.10994E-004	 -4.95736E-003	 -5.68979E-003	  5.53142E-003
  8.19200E+000	  3.94088E-002	  8.24246E-003	 -3.17610E-003	 -5.47101E-004	 -1.84613E-003	 -4.66255E-003	 -5.11352E-003	  3.83470E-003
  9.01120E+000	  3.07577E-002	  8.09367E-003	  1.33161E-003	  1.42753E-003	  5.06055E-004	 -4.79644E-005	 -5.35392E-004	  1.72836E-003
  9.83040E+000	  2.49808E-002	  9.67563E-003	 -3.46425E-003	  6.98614E-004	  1.52115E-003	 -5.68442E-004	  1.09954E-003	  4.00192E-003
  1.06496E+001	  2.11877E-002	  7.37192E-003	 -8.21387E-003	  2.06574E-003	  2.05160E-003	 -2.09633E-003	  4.24816E-004	 -3.58709E-004
  1.14688E+001	  1.59278E-002	  4.53641E-003	 -9.93224E-004	  1.38723E-004	 -8.16428E-004	 -1.22667E-003	  3.90546E-003	  4.31674E-003
  1.22880E+001	  1.57858E-002	  1.77989E-003	  5.95648E-004	 -3.25164E-003	 -8.34844E-004	  4.48671E-004	  5.95588E-003	  1.68749E-003
  1.31072E+001	  1.47036E-002	  3.72601E-003	  5.56189E-003	 -5.01031E-003	 -3.11164E-004	  7.39076E-005	  5.48696E-003	 -7.54081E-004
  1.47456E+001	  1.01321E-002	  7.31874E-003	  3.05605E-003	 -9.28568E-004	 -1.15534E-004	 -1.20082E-003	  2.70318E-003	 -2.02933E-003
  1.63840E+001	  4.25298E-003	  7.79646E-003	 -5.11765E-003	 -9.12663E-004	 -5.02652E-003	  3.00823E-003	  2.90313E-003	  3.94395E-004
  1.80224E+001	  7.09799E-003	  6.64698E-003	 -2.13797E-003	  4.76235E-004	  5.80289E-004	  3.15327E-003	 -1.42852E-003	  1.86865E-003
  1.96608E+001	  6.07530E-003	 -2.79350E-003	 -2.07817E-003	  3.08947E-003	 -7.11261E-004	 -2.26013E-003	 -1.67641E-003	  1.22000E-004
  2.12992E+001	  2.71052E-003	 -5.16609E-003	 -7.94206E-004	  4.89059E-003	 -6.63180E-004	 -2.25424E-003	  2.49313E-003	 -1.20601E-003
  2.29376E+001	 -7.04807E-004	 -5.99966E-003	  8.21526E-003	  9.44086E-004	 -1.90019E-003	  9.02661E-004	 -9.13265E-004	 -1.21238E-003
  2.45760E+001	 -2.42770E-003	 -3.06524E-003	  1.25876E-002	 -2.21475E-003	 -3.12295E-004	  2.63529E-003	 -6.30644E-005	 -8.04808E-004
  2.62144E+001	  1.55670E-004	 -1.17022E-003	  6.86119E-003	 -1.76899E-003	 -5.15494E-004	 -1.70457E-004	  1.15209E-004	 -1.10967E-003
  2.94912E+001	  1.05943E-002	 -1.61538E-003	  5.47436E-003	  5.50627E-004	  3.41348E-004	  1.40064E-003	 -8.04013E-004	 -1.13988E-003
  3.27680E+001	  4.52431E-003	 -3.47762E-004	  1.50351E-003	  4.06975E-004	  3.81441E-004	 -2.49281E-003	  1.90004E-004	 -1.28236E-003
  3.60448E+001	 -1.00351E-003	  2.96928E-003	  4.13643E-003	  3.60510E-003	  3.47223E-004	 -3.41822E-003	  1.27071E-003	  2.14190E-003
  3.93216E+001	 -4.86012E-003	 -2.61531E-003	 -3.90566E-003	 -3.58509E-003	 -3.87999E-004	 -7.46440E-004	  1.17875E-003	 -2.10532E-004
  4.25984E+001	 -5.42297E-003	  2.15210E-003	  8.46177E-004	  3.42852E-003	 -2.29846E-004	  2.24662E-003	 -1.37229E-003	  1.91526E-003
  4.58752E+001	  5.38413E-003	  7.74756E-004	 -8.80231E-004	  1.80578E-003	  3.42615E-003	 -4.39654E-004	 -2.28481E-003	  1.00647E-003
  4.91520E+001	  9.78083E-003	 -1.45650E-003	 -2.18696E-004	  2.39925E-004	 -1.32625E-003	 -1.06444E-003	 -1.23194E-003	  3.79744E-004
  5.24288E+001	  7.22115E-003	 -8.97745E-004	  7.99215E-004	 -1.41722E-003	 -6.92591E-004	 -1.86907E-003	  2.68449E-003	  8.01972E-004
  5.89824E+001	 -1.33960E-003	  1.76327E-003	 -5.92656E-004	 -1.95974E-003	  2.02241E-003	 -3.16393E-003	  9.70611E-004	 -7.98325E-004
  6.55360E+001	  1.37511E-003	  2.17144E-003	 -5.09515E-003	  3.43797E-003	  3.75040E-004	  2.38695E-003	 -1.60785E-003	  2.87056E-004
  7.20896E+001	  7.08785E-003	 -1.89178E-003	 -3.59491E-003	 -1.01106E-003	  2.54433E-004	 -1.94511E-003	  1.31132E-003	  9.85530E-004
  7.86432E+001	  8.56535E-003	 -1.61765E-003	 -2.36666E-003	  4.33707E-003	 -2.28653E-004	 -1.14125E-003	 -1.54593E-003	  2.49227E-004
  8.51968E+001	  6.92161E-003	 -2.01117E-003	 -3.39606E-004	 -1.56623E-003	  2.47087E-004	 -1.12808E-004	 -1.43566E-004	 -9.70995E-004
  9.17504E+001	  9.85996E-003	 -1.61624E-003	 -1.04118E-005	 -1.20584E-003	 -2.36083E-003	 -4.12810E-004	  1.42773E-003	  6.98750E-004
  9.83040E+001	  3.05643E-004	  8.99661E-004	 -2.59337E-003	 -1.11511E-003	  2.09606E-003	 -2.69178E-003	 -6.75142E-004	 -1.11010E-003
  1.04858E+002	 -3.89698E-003	  5.75446E-003	 -3.01710E-003	 -1.04705E-004	  1.17638E-003	 -9.66603E-004	 -5.09905E-004	 -1.01790E-003
  1.17965E+002	  5.62300E-003	  1.16160E-003	  2.00771E-004	  8.74619E-004	 -1.43896E-003	 -8.09072E-004	 -7.41434E-004	 -1.61355E-003
  1.31072E+002	  1.57024E-003	 -1.01904E-003	 -2.35707E-003	 -9.91039E-004	 -1.25265E-003	  1.40310E-003	 -1.49346E-003	  8.60671E-004
  1.44179E+002	 -1.00761E-002	  2.08671E-003	 -1.18617E-004	  1.83260E-003	  3.29007E-004	 -7.75512E-004	  7.70095E-004	 -1.51034E-003
  1.57286E+002	  4.75274E-004	 -2.98334E-003	  4.50092E-003	  5.25268E-004	  3.59906E-004	 -6.49970E-004	  7.99430E-004	 -9.17363E-004
  1.70394E+002	 -3.90472E-003	 -2.92626E-003	  1.42930E-003	 -6.86425E-004	 -6.95058E-004	  5.58558E-004	  1.38282E-005	  5.97496E-004
  1.83501E+002	 -3.05243E-003	  1.23136E-003	  5.01614E-003	 -8.22478E-004	  9.70210E-004	  1.24796E-004	 -1.28215E-003	  6.63015E-004
  1.96608E+002	  1.00528E-003	 -4.03226E-003	 -2.30362E-003	 -6.63789E-004	 -1.20424E-004	  4.21138E-004	  1.71268E-003	 -3.78228E-004
  2.09715E+002	  8.47309E-003	  1.18533E-003	  2.54436E-004	 -4.54917E-004	  1.02608E-003	  8.09468E-004	  6.94637E-004	 -9.51245E-004
  2.35930E+002	  4.44352E-003	 -5.49520E-004	 -4.29433E-004	 -8.24692E-004	  9.82610E-004	  4.13491E-004	  6.47161E-004	 -1.15740E-003
  2.62144E+002	 -4.63889E-003	  3.02405E-003	 -1.15047E-003	 -3.43524E-004	  7.57541E-004	 -4.51505E-004	  2.47769E-004	  9.64763E-004
  2.88358E+002	 -4.35946E-003	  1.79528E-003	  1.67268E-003	 -1.76636E-003	 -1.11718E-003	 -2.72506E-004	 -5.02410E-004	 -9.06435E-004
  3.14573E+002	 -1.10660E-003	  2.62031E-003	  3.96482E-004	 -1.51305E-003	  9.92592E-005	 -5.23412E-004	  6.85356E-004	  7.99228E-004
  3.40787E+002	 -4.73057E-003	 -3.53387E-004	  1.33527E-003	  9.38770E-004	 -1.45127E-003	  6.10743E-004	 -2.02683E-004	  3.85809E-004
  3.67002E+002	 -7.16174E-003	 -1.72833E-003	  2.32967E-003	  1.57608E-004	  1.45229E-003	 -1.61868E-003	  6.76659E-005	  1.14390E-004
  3.93216E+002	  6.24073E-004	 -6.46314E-004	  1.62528E-003	  5.04046E-004	  9.84151E-004	  3.99572E-005	 -2.15012E-004	 -5.48230E-004
  4.19430E+002	 -3.56595E-003	 -2.36352E-003	  2.31207E-003	  1.09796E-003	 -1.67200E-004	  5.97517E-004	  2.59245E-005	 -7.44604E-004
  4.71859E+002	 -1.01261E-002	 -3.35898E-004	  1.68500E-003	 -1.09847E-003	 -7.19261E-004	  1.31913E-004	 -1.24229E-004	 -1.77005E-004
  5.24288E+002	 -3.72087E-003	  1.11429E-003	 -4.90936E-004	  1.53092E-003	 -8.92824E-004	  3.46149E-004	  2.44315E-004	  6.01016E-005
  5.76717E+002	  2.65140E-003	  9.34678E-005	 -1.09221E-003	  1.13234E-003	 -3.22119E-005	 -8.75235E-004	  6.41497E-004	 -5.93861E-005
  6.29146E+002	  5.18853E-003	 -3.39794E-003	  1.29422E-003	 -1.00862E-003	  9.16515E-004	  5.78638E-004	  4.80642E-004	 -7.44869E-005
  6.81574E+002	  3.41979E-003	 -2.24300E-003	 -8.42818E-004	  5.77469E-004	  1.01778E-004	  4.28434E-004	 -3.37730E-004	  2.45263E-004
  7.34003E+002	  1.26128E-003	 -2.43459E-003	  2.51736E-003	  3.46391E-004	 -2.28009E-004	 -7.57733E-004	 -6.87768E-004	 -8.43964E-005
  7.86432E+002	  2.56728E-003	 -1.99877E-003	 -9.88683E-004	 -8.01749E-004	  1.61331E-005	  4.44191E-004	  3.98450E-004	  3.73063E-004
  8.38861E+002	 -4.16449E-004	 -2.08563E-003	 -5.86253E-004	  6.47921E-005	 -4.52517E-004	  6.00667E-004	  5.12176E-004	  2.30315E-004
  9.43718E+002	  2.40514E-003	 -3.12534E-003	  6.78297E-004	 -4.00843E-005	  6.40977E-004	 -5.85368E-004	 -1.36795E-004	 -3.25507E-004
  1.04858E+003	  1.89063E-003	  2.01685E-003	  1.46826E-003	 -1.07036E-003	 -2.74150E-004	  2.03203E-005	 -4.02552E-004	  8.77789E-005
  1.15343E+003	 -4.88820E-003	 -5.98183E-004	  6.32608E-004	  5.52774E-004	  3.34466E-004	 -1.71126E-004	  5.42822E-004	 -6.36490E-004
  1.25829E+003	  1.62744E-003	  1.70710E-005	 -1.09798E-003	 -6.40613E-004	  1.29500E-004	  6.48293E-004	  2.30828E-004	 -9.03873E-005
  1.36315E+003	 -5.61164E-003	 -3.18489E-005	  3.79899E-004	 -5.34975E-004	 -1.01476E-004	  3.50143E-005	 -5.14975E-004	  3.69153E-004
  1.46801E+003	  2.13555E-003	 -5.85059E-004	  9.78849E-004	 -1.32769E-003	 -5.89954E-004	 -3.10977E-004	 -9.91956E-005	 -2.07147E-004
  1.57286E+003	 -1.80047E-003	  3.08554E-003	 -2.96187E-004	  1.12892E-003	 -1.36599E-004	  7.34770E-004	 -5.33683E-004	  4.50318E-004
  1.67772E+003	 -4.49893E-003	  3.26029E-003	  1.38735E-004	  1.51214E-004	 -8.44769E-006	  2.51965E-004	  2.14026E-005	  1.25337E-004
  1.88744E+003	 -1.02611E-003	  4.79228E-004	  9.38052E-005	  3.49194E-008	 -4.02185E-004	 -2.14673E-004	 -3.10277E-004	 -1.64543E-004
  2.09715E+003	 -3.00204E-003	  3.32790E-004	 -1.57131E-003	 -1.37358E-004	  1.88277E-004	  1.23414E-004	 -5.44939E-005	  2.49191E-004
  2.30687E+003	  3.55227E-004	 -2.93219E-004	 -1.90675E-003	 -4.92216E-004	  5.99254E-004	 -3.47048E-004	  9.61738E-005	  2.07848E-005
  2.51658E+003	  4.77817E-003	 -1.71886E-003	 -7.52419E-004	  3.82438E-005	 -2.09752E-004	 -3.67888E-004	 -9.19892E-005	 -4.24362E-004
  2.72630E+003	 -4.10126E-003	 -2.26660E-003	 -5.45739E-004	  4.09024E-004	 -6.41427E-004	  2.78194E-004	 -1.34466E-004	 -4.50225E-004
  2.93601E+003	 -1.00608E-003	 -1.81063E-003	  3.85735E-004	  2.98106E-004	 -5.21551E-004	 -3.12570E-005	  1.72162E-004	  1.29345E-004
"Count Rate"
       0.11679	     162.74051	     127.79749	     110.05731	     102.70538	      74.44903	      97.60508	      97.34921	     124.34327
       0.23357	     215.02286	     117.87834	     133.37541	      90.25314	      79.94167	     100.25758	      96.14663	     120.24086
       0.35036	     152.53139	     133.06837	      99.52409	      92.85446	      72.53002	      85.48547	     106.39841	     145.42679
       0.46714	     161.27354	     130.94467	     101.30663	      99.85671	      84.97373	      97.52831	     110.41553	     129.50328
       0.58393	     173.75989	     152.19023	     122.86777	      78.65379	      75.25075	      89.89492	      94.49202	     146.12616
       0.70072	     198.10999	     116.27490	     106.86749	     106.66280	      86.33836	      96.31721	     107.45599	     132.08754
       0.81750	     145.85324	     109.76733	     106.91014	      93.03357	      80.93954	      93.55383	     102.73949	     136.20702
       0.93429	     247.08310	     117.34102	     111.61811	      82.01419	      82.98649	      98.21916	      87.76269	     148.82130
       1.05107	     204.22523	     147.03023	     108.07008	      91.95039	      75.93307	      94.62848	     103.35358	     121.71636
       1.16786	     163.18402	     159.26924	     107.19160	      85.43430	      79.19112	      96.03575	     104.47939	     142.75723
       1.28465	     166.09239	     157.40141	     122.85924	      91.31072	      80.59839	      94.84171	      97.86948	     132.36900
       1.40143	     189.06932	     113.25566	     117.13633	      78.74761	      80.53869	      93.52825	     115.83993	     134.42447
       1.51822	     209.87138	     111.72898	     100.51344	      96.91423	      76.14629	      89.73287	     109.17883	     134.83386
       1.63500	     142.66342	     140.07062	     125.90407	      90.00580	      83.19971	      91.92481	     118.37302	     124.60767
       1.75179	     260.92557	     146.83406	      91.01221	      80.22311	      74.61108	      95.12316	     107.84832	     123.98505
       1.86858	     186.48506	      90.16785	     109.80145	      91.61777	      83.84792	      99.08911	      99.37910	     142.10904
       1.98536	     208.54939	     128.53951	     115.37083	      89.20408	      94.41526	      88.24884	     112.14690	     127.06400
       2.10215	     266.36700	     155.44829	      88.75204	      99.60085	      67.51501	      89.28084	     116.97427	     134.06625
       2.21894	     221.47926	     103.46445	     102.29599	      85.89485	      77.28916	      92.72653	     101.51985	     135.01297
       2.33572	     190.77512	     103.02947	     114.82499	      72.91383	      76.22305	     108.38564	     105.98901	     132.10460
       2.45251	     185.98186	     158.24577	     118.81653	      84.58140	      92.28303	      93.18709	     112.24072	     142.42461
       2.56929	     168.02846	     137.92133	     111.25137	      92.44508	      81.45129	      96.42809	     120.09586	     135.89145
       2.68608	     259.36478	     117.90393	     108.98267	      91.90775	      73.62173	      94.25320	     102.08276	     123.70361
       2.80287	     163.26079	     150.80002	     108.53064	      92.93122	      74.76460	     102.71391	      98.38121	     124.27504
       2.91965	     179.61926	     159.87480	     108.94855	      78.35528	      75.63455	      98.94411	     114.08297	     120.45408
       3.03644	     144.50566	     121.58842	      93.74147	      88.54736	      84.00143	     100.37698	      96.12104	     144.98328
       3.15322	     150.91942	     134.87650	      96.29162	      88.70087	      77.71561	      90.20197	     100.52197	     124.10446
       3.27001	     187.78145	     120.28350	     111.76310	      96.67542	      73.49379	      98.10828	      98.43238	     138.97038
       3.38680	     191.13333	     148.03664	      98.28739	      80.81161	      80.58133	      88.79469	      92.08686	     130.79114
       3.50358	     131.74638	     110.98697	      96.00164	      83.85644	      75.43839	      83.12296	      99.70319	     148.92365
       3.62037	     182.60440	     120.39438	      90.50048	      98.15092	      77.60474	      88.74352	      98.14240	     133.32423
       3.73715	     143.16663	     140.22414	      90.99516	      96.95688	      80.38517	      93.15298	      99.91642	     146.84259
       3.85394	     195.24426	     120.81229	     118.28773	      93.52825	      82.97796	     114.49236	     106.08283	     129.29858
       3.97073	     250.22176	     132.25812	     106.34723	      81.15277	      95.17433	      86.27866	     107.31953	     132.44576
       4.08751	     131.61845	     135.95114	     115.82287	      72.89677	      73.06734	      99.69466	      94.79053	     153.69984
       4.20430	     164.30984	     152.34375	      98.51767	      85.61340	      80.49604	      95.63490	      94.50055	     145.06857
       4.32108	     178.41669	     112.45394	     102.64568	      97.92065	      95.01228	     117.20456	     102.25334	     126.33904
       4.43787	     151.51645	     120.36879	      92.19773	      87.33624	      78.19323	      83.54940	      99.58379	     126.90195
       4.55466	     310.05219	     146.44173	     101.82690	      73.32321	      80.29135	      97.22980	      99.33645	     126.12582
       4.67144	     183.49141	     120.53937	     113.93798	      81.11012	      85.18695	     101.26398	     108.97414	     150.76590
       4.78823	     260.74646	     104.91437	     103.94207	      77.16123	      82.03978	      89.20408	     102.76508	     153.29900
       4.90501	     278.23929	     110.48376	      96.77777	      87.96738	      82.76474	      84.77757	     116.88046	     141.69112
       5.02180	     141.06851	     132.31783	     119.95087	      77.08447	      89.67317	      95.37903	     111.65222	     137.90427
       5.13859	     160.13919	     129.32417	     125.54585	      73.51085	      85.70722	      98.67120	     119.31973	     129.37534
       5.25537	     181.78561	     115.84846	     107.07219	      94.43231	      78.87555	      86.94392	     102.89301	     129.46916
       5.37216	     222.75006	     128.29216	     102.88448	      79.10583	      76.51303	      96.56454	     104.76085	     128.31775
       5.48894	     157.67433	     122.57778	     118.93593	      94.35555	      84.25730	     103.06359	     109.14472	     128.90625
       5.60573	     213.36824	     121.14492	     127.93395	      90.36401	      85.42577	     106.51781	      98.91853	     133.31570
       5.72252	     231.78221	     143.08133	     135.98526	      74.35521	      74.99488	      99.38763	     103.31946	     138.27954
       5.83930	     265.02798	     140.94057	     151.96848	      95.71165	      82.61121	      98.62002	     102.95271	     132.54810
       5.95609	     159.55922	     131.95108	     113.21302	      85.21254	      80.37664	      97.39185	      92.72653	     120.97434
       6.07287	     208.35324	     145.50356	     143.32014	      79.67727	      91.06339	      90.56018	     119.80589	     125.46909
       6.18966	     203.86702	     123.40509	      87.55800	      91.06339	      79.71991	      95.95899	     104.16383	     139.13243
       6.30645	     273.83835	     115.43907	     124.94030	      90.54312	      83.38735	      95.67754	     107.94214	     128.44569
       6.42323	     235.48376	      97.32362	     121.47755	      90.62841	      75.46397	      99.98465	     105.63933	     125.68231
       6.54002	     177.33351	     132.13872	     116.98280	      79.98431	      81.69009	      95.95046	      99.65202	     131.88284
       6.65680	     164.01985	     105.39199	     119.89117	      78.76467	      82.63680	      86.26160	     101.30663	     118.97005
       6.77359	     200.03752	     121.84430	     113.05097	      84.38523	      75.18252	     113.76740	     105.12759	     145.97264
       6.89038	     148.03664	     181.58092	     146.52702	      84.31700	      76.41921	      92.49625	     135.55882	     131.90843
       7.00716	     213.69234	     140.57382	     111.02108	     100.28316	      79.19965	     102.47510	     100.01023	     136.43730
       7.12395	     190.23779	     189.57253	     135.99379	      98.04005	      74.19316	      98.24474	     105.17023	     144.65065
       7.24074	     250.66525	      80.54722	     117.44337	      88.44501	      88.09532	      92.06127	     110.62022	     145.98970
       7.35752	     224.08911	     116.92310	      94.40673	      93.74147	      90.30431	      89.86081	     114.19385	     137.84457
       7.47431	     128.79538	     143.03015	     103.92501	      79.63462	      71.45538	      98.82471	     101.57956	     127.46486
       7.59109	     131.37111	     137.55458	     115.53289	      72.45326	      88.59000	      92.34273	     110.30466	     135.26883
       7.70788	     208.81380	     157.33318	     118.19392	      94.58584	      78.43204	      88.87998	     100.06141	     132.30077
       7.82467	     201.70067	     114.09150	      90.46636	      72.41061	      75.10576	      93.44296	     110.27907	     131.56728
       7.94145	     186.08420	     140.17297	      98.17651	      82.46622	      78.25294	      91.40454	     110.70551	     139.97681
       8.05824	     130.68027	     131.44788	     107.02102	      90.01433	      85.75839	     100.39404	     105.78432	     150.94501
       8.17502	     244.83147	     162.32260	     120.97434	      84.06966	      84.72639	     104.17236	     100.97401	     130.96172
       8.29181	     169.82806	     121.65666	      92.38537	      84.64111	      87.72005	      97.08481	      95.48138	     125.16205
       8.40860	     209.78609	     142.59518	      86.71363	      86.13367	      92.30861	      94.63701	     116.72694	     153.00047
       8.52538	     199.30405	     128.99155	     123.92535	      96.83747	      71.31892	      91.02074	     103.46445	     123.08952
       8.64217	     131.95108	     118.16833	     115.51583	      80.26576	      78.31264	     101.56250	      99.60085	     146.21997
       8.75895	     278.59750	     131.93402	     109.95496	      77.29769	      81.01630	     101.58809	      98.12534	     136.76993
       8.87574	     146.97052	     170.39949	      85.91191	      90.55165	      72.94794	      96.07840	     104.48792	     126.76549
       8.99253	     215.21902	     131.38817	     124.03623	      73.10999	      83.49822	      86.61128	      98.99529	     150.04947
       9.10931	     265.88940	     157.58052	     107.52422	      78.38087	      79.37022	      90.27872	     111.08932	     132.13872
       9.22610	     185.36777	     153.82779	     105.69903	      86.61981	      80.50457	      96.03575	     101.06783	     139.55035
       9.34288	     184.74516	     135.00444	     109.58823	      77.55356	      86.40659	      89.28937	     104.76938	     128.52245
       9.45967	     212.11449	     114.63735	     115.34525	      75.95013	      83.09737	      95.69460	     101.68191	     148.18163
       9.57646	     150.95354	     117.86981	     113.29831	     103.91648	      89.21261	      93.98881	     112.02750	     136.99167
       9.69324	     163.25226	     111.25137	     102.27040	      83.60910	      76.61538	     100.02729	     110.93579	     128.20688
       9.81003	     334.61551	     133.03426	      95.36197	      82.27859	      84.42788	      91.07191	     100.01876	     117.81011
       9.92681	     192.77087	     124.73560	     109.72469	      92.49625	      71.89888	      90.72223	     104.10412	     136.46288
      10.04360	     234.70763	     126.54374	     104.88026	      99.24263	      89.08468	      92.59859	      99.72878	     141.66553
      10.16039	     171.41444	     135.71234	      91.71159	      87.25095	      85.16990	      97.54537	     108.96561	     140.78705
      10.27717	     176.43797	     155.40564	     113.48595	      87.40447	      77.16976	      99.14028	      99.80554	     133.98949
      10.39396	     161.65735	     120.48820	     128.83801	      78.30411	      81.40011	     100.47079	      99.53262	     132.37752
      10.51074	     163.14137	     126.45845	     127.60986	      95.92488	      78.54292	      86.27013	     104.53057	     122.73131
      10.62753	     171.98587	      92.57301	      88.14649	      88.95674	      77.48533	      94.78200	     101.46015	     126.90195
      10.74432	     199.86694	     122.82513	     107.43893	      78.17617	      72.76883	     104.99113	      94.55172	     148.01105
      10.86110	     184.74516	     143.47366	     112.60747	      88.43648	      74.05670	      99.80554	     106.58604	     123.37097
      10.97789	     206.85214	     131.18347	     103.15741	      90.79046	      83.66881	      87.17419	     111.35371	     144.50566
      11.09467	     234.56264	     127.54162	      95.99311	      86.19337	      76.81155	      97.13599	     104.73526	     130.56940
      11.21146	     203.50027	     135.45647	      95.63490	      87.78828	      65.76658	      91.14867	      97.70742	     121.33256
      11.32825	     196.21657	     121.26433	     118.33038	      87.26801	      85.12725	      92.35979	     104.56468	     135.65263
      11.44503	     135.76350	     134.75710	     129.17065	     101.85249	      84.76051	     115.56700	      99.42174	     130.64615
      11.56182	     240.17467	     127.75484	      86.64540	      92.23185	      75.60043	     102.56039	     102.35569	     140.69324
      11.67861	     151.55055	     109.02531	      97.37479	      94.86729	      71.01187	      99.35351	      98.74796	     123.03835
      11.79539	     153.68279	     121.93811	     105.35787	      78.29558	      89.64758	      92.82034	     105.22141	     136.57376
      11.91218	     140.59088	     136.62494	     113.23008	      70.73042	      95.20845	     105.11053	      97.73301	     134.74004
      12.02896	     173.64902	     118.23656	      90.67106	      84.83727	      88.70940	     107.88244	     110.24495	     138.68893
      12.14575	     239.15973	     108.12978	     124.35180	      98.90147	      93.09327	      97.90359	     108.41976	     137.25607
      12.26254	     212.96739	     153.48663	     125.05117	      89.97169	      78.01412	      97.50273	      98.23621	     147.72960
      12.37932	     188.08850	     131.59286	     101.84396	      83.95026	      72.65796	      93.86088	      95.19992	     128.70155
      12.49611	     146.42467	     156.64233	     123.40509	      92.46214	      77.34887	      96.82041	     104.60733	     127.99365
      12.61289	     134.63770	     129.98090	      98.65414	     104.64144	      86.36395	     100.90577	     110.91021	     145.95558
      12.72968	     220.61783	     129.70796	     115.92522	      87.40447	      89.66464	      97.75860	     113.37507	     126.59491
      12.84647	     166.55295	     121.59695	     103.08918	      80.65809	      84.96520	      88.20619	     106.60310	     128.05336
      12.96325	     230.60521	     119.05534	     111.21725	     100.70961	      90.28725	      94.45790	     101.68191	     140.69324
      13.08004	     172.21616	     128.44569	     100.56461	      81.45981	      76.48744	      91.20838	      95.14874	     134.10037
      13.19682	     210.69868	     126.35610	     123.44773	      89.11026	      78.56850	      96.68395	     105.33229	     127.84013
      13.31361	     176.53180	     152.05377	     122.77395	     102.21070	      84.57287	      87.11449	     108.91444	     123.89977
      13.43040	     234.82703	     151.66144	      99.35351	      83.06325	      88.99086	      93.37473	     113.11067	     130.62909
      13.54718	     155.14977	     107.90803	     104.12118	      88.59853	      94.96111	     104.49645	     104.49645	     138.63776
      13.66397	     193.13762	     153.73396	     109.06796	      76.41068	      88.44501	      94.34702	     105.22994	     145.59737
      13.78075	     177.01794	     151.51645	     108.13831	      72.71766	      79.43845	      94.06557	     107.86538	     122.59484
      13.89754	     214.22115	     156.51440	     107.86538	      78.81584	      83.22530	      88.80322	      99.19146	     133.37541
      14.01433	     166.70647	     125.40939	     104.26617	      86.87568	      85.98015	      83.25941	     101.60515	     140.37766
      14.13111	     172.65114	     173.99017	      86.26160	      91.50689	      78.74761	      97.16158	      99.67760	     128.70155
      14.24790	     170.86859	     124.53091	     130.82526	      88.15502	      82.14213	      98.28739	     110.27907	     132.65898
      14.36468	     187.67058	     157.00055	     102.23628	      84.32553	      95.07198	     105.22141	     102.76508	     137.34988
      14.48147	     234.81851	      99.56673	      93.08474	      81.48540	      70.61102	      86.06544	     113.70770	     128.24100
      14.59826	     235.93579	     123.04688	     103.05506	      86.32983	      81.17836	      91.79688	     114.53500	     130.41588
      14.71504	     199.42345	     134.70592	     112.53070	      77.50239	      79.69432	     100.34286	      95.39608	     129.26447
      14.83183	     154.88538	      98.67120	      94.12527	      85.49400	      83.74557	      91.48983	     110.25348	     147.55049
      14.94861	     210.90338	     134.56946	     106.96984	      94.77347	      74.00552	      98.09975	     100.08700	     149.75949
      15.06540	     164.66806	     114.75675	     105.34081	      88.24031	      89.81816	      92.68388	     108.49652	     125.58849
      15.18219	     155.92590	     119.41355	     114.15973	      96.78630	      81.75832	      97.80124	      99.37057	     129.08536
      15.29897	     222.29803	     155.20094	     124.10446	     116.11285	      82.86709	     100.21493	     107.54981	     126.21111
      15.41576	     184.60016	     121.76753	     104.58174	      95.96752	      82.10801	      95.07198	      97.47714	     130.38176
      15.53254	     193.53848	     115.89111	      98.76501	      79.21671	      80.21458	      92.15509	     103.21711	     138.29660
      15.64933	     195.67072	     145.72530	     120.12998	      94.86729	      78.47469	      86.11661	     113.48595	     151.19234
      15.76612	     181.38475	     156.52292	      99.72025	      95.54108	      88.92262	      95.66901	     118.19392	     133.42659
      15.88290	     152.25845	     145.63148	     108.99973	     100.54755	      82.97796	      95.40461	     104.41116	     127.12370
      15.99969	     205.22311	     117.32396	     102.67126	      84.10378	      97.17863	      89.27231	     110.73963	     147.61873
      16.11647	     158.78310	     131.45641	      98.80766	      88.25737	      73.51938	      86.83304	     111.25137	     139.85739
      16.23326	     193.19733	     139.91710	     103.34505	      86.11661	      71.00334	      97.65625	      98.65414	     107.24277
      16.35005	     238.46036	     124.80383	     101.11900	      74.31257	      72.62384	      88.55589	     124.90618	     119.99352
      16.46683	     257.98309	     115.62671	     110.30466	      84.84579	      82.40652	      93.88646	     108.22359	     142.37343
      16.58362	     202.25505	     105.51140	     109.11913	      99.36204	      82.21036	     105.84402	     105.11906	     136.36906
      16.70041	     186.39124	     147.56755	     138.21132	      86.91833	      93.06769	     100.66696	     115.20026	     142.66342
      16.81719	     163.68723	     136.35201	     101.58809	      77.83501	      86.16778	      92.96534	     101.41751	     133.71657
      16.93398	     270.27325	      97.40891	     109.62234	      82.08242	      83.09737	      90.86722	     116.56489	     137.48636
      17.05076	     213.31708	     124.08740	     107.56686	      89.07615	      79.07171	      92.66682	      90.13374	     154.81714
      17.16755	     253.22394	     130.09177	     113.07655	     103.17447	      87.54947	      98.62855	     108.74386	     139.21773
      17.28433	     185.76863	     176.78766	      98.15092	      97.13599	      81.92890	     110.49229	     102.75655	     122.97012
      17.40112	     179.84955	     155.92590	     112.59041	      83.31059	      72.61531	      98.84177	      99.06352	     125.11941
      17.51791	     180.82185	     197.77736	      88.40236	      82.37241	      74.93518	      91.72865	     104.92290	     136.91492
      17.63469	     166.13503	     165.65741	     108.79504	      87.83945	      86.97803	      90.18491	     108.37711	     129.70796
      17.75148	     213.81175	     160.23302	     111.14049	      92.18068	      76.88831	      90.98663	     116.96575	     132.54810
      17.86827	     232.34511	     129.40945	     114.03180	      87.83092	      73.04176	      97.68184	     103.27682	     132.37752
      17.98505	     198.69849	     130.41588	      84.98226	      86.98656	      80.35105	      88.45354	     106.62868	     130.54381
      18.10184	     227.13394	     143.49925	     126.90195	      73.67290	      75.07164	     100.18082	     100.64137	     127.83160
      18.21862	     136.17290	     128.40305	     113.13626	      76.10365	      89.22114	      83.12296	     112.53923	     118.38155
      18.33541	     146.32233	     123.94241	     133.34982	      70.02251	      74.71342	     112.13837	     105.12759	     151.21793
      18.45220	     194.64725	     115.45613	     108.45387	      86.18484	      75.51514	      97.57096	      95.25109	     136.17290
      18.56898	     219.65407	     120.40291	      89.82669	      83.41293	      82.07390	      94.96111	      91.64336	     129.57150
      18.68577	     241.73547	     145.52913	     106.35576	      83.94173	      77.73267	      83.93320	     111.28548	     128.42863
      18.80255	     199.68784	     140.93204	     104.85467	      88.11238	      78.52586	      90.29578	     110.71404	     141.23909
      18.91934	     200.74542	     120.81229	     121.42638	      87.44712	      95.73724	      83.86497	     100.23199	     136.60788
      19.03613	     190.21220	     113.16184	      93.48560	      79.90755	      78.90966	      82.96091	     103.09771	     131.96814
      19.15291	     167.28644	     195.97775	     115.09792	      82.65386	      83.92467	      96.35133	      89.86934	     121.79312
      19.26970	     262.37549	     125.83584	     103.72885	      95.63490	     100.10405	      94.61142	      96.20633	     137.44371
      19.38648	     264.10684	     173.34198	     103.58385	      83.98438	      79.83932	      95.33638	     105.26405	     114.62882
      19.50327	     151.49939	     120.13851	     125.09382	      91.23396	      80.18900	      94.96964	     101.76720	     135.85733
      19.62006	     183.39758	     103.37064	     133.94685	      78.96936	      68.59818	      86.27866	     103.39622	     125.05970
      19.73684	     242.24721	     148.89806	     102.34716	      96.66689	      73.49379	      87.81387	     111.56693	     127.20899
      19.85363	     261.58228	     143.21779	     113.64799	      99.62643	      78.37234	      87.34477	     117.46896	     143.90865
      19.97042	     365.63522	     134.86797	     114.99557	      77.98854	      77.13564	      89.02497	     113.07655	     125.44350
      20.08720	     196.05452	     125.78466	     114.37296	      88.92262	      77.55356	     100.09553	     101.21281	     134.50975
      20.20399	     143.88306	      76.57273	     140.32649	      88.25737	      93.86941	      92.16362	     119.11504	     146.51849
      20.32077	     196.95006	     161.29060	     108.99973	      92.11244	      75.70278	      91.31925	     103.39622	     127.08958
      20.43756	     170.33980	     100.20640	     102.69685	      82.15066	      87.79681	      87.14861	     106.19371	     124.19828
      20.55434	     151.65291	     137.40959	     107.72892	      78.90113	      79.19112	      88.28296	      94.28732	     137.94691
      20.67113	     226.69043	     116.12991	     120.04469	      86.17631	      78.14206	      94.73936	     115.66935	     136.13025
      20.78792	     183.59375	     152.62520	     104.90584	      84.65816	      67.73676	      94.25320	     108.82915	     138.46718
      20.90470	     284.39719	     136.70169	     115.22585	      91.50689	      78.11647	      92.18921	     113.23008	     131.82315
      21.02149	     294.97305	     122.38162	     108.49652	     100.81195	      84.69228	      94.79906	     114.89322	     131.24318
      21.13828	     171.33768	     169.32484	     104.09559	      79.21671	      81.87773	      98.29592	     100.60726	     122.12575
      21.25506	     182.83467	     132.10460	      97.03364	      89.19555	      88.62411	      93.25533	     110.76521	     132.94043
      21.37185	     167.16704	     140.70177	     108.27477	      94.19350	      84.87991	      98.40680	      93.34061	     128.14717
      21.48863	     152.04524	     114.82499	     100.73519	      86.02279	      83.77968	      92.19773	     114.69705	     137.40106
      21.60542	     121.03405	     142.56107	     112.12132	      72.03535	      79.91608	      89.40025	     102.31305	     123.53303
      21.72220	     192.26767	     112.41983	     110.33024	      75.16546	      77.40857	     101.67338	     109.97202	     125.40086
      21.83899	     150.59532	     134.84239	     120.36026	      92.18068	      74.97782	      91.52395	     104.04442	     136.07056
      21.95578	     189.82840	     137.48636	     124.21534	      89.34055	      75.79660	      87.78828	      98.00594	     136.96609
      22.07256	     162.90257	     123.20039	     112.27483	      84.09525	      77.23799	      97.30656	      98.66267	     143.00458
      22.18935	     130.97878	     185.47011	     125.58849	      76.25716	      78.04824	      88.73499	     110.29613	     142.66342
      22.30614	     186.98827	      96.60719	     116.36019	      73.06734	      70.04810	      95.39608	     112.16396	     141.25613
      22.42292	     266.98962	     100.01023	     116.63312	      82.56857	      85.43430	      97.10187	     107.16601	     150.35651
      22.53971	     205.00989	     136.29230	     103.22564	      89.93757	      84.71786	     103.72885	     106.81632	     131.50757
      22.65649	     218.67323	     133.18777	      98.21916	      86.32130	      80.83720	      99.32792	     116.93163	     144.18156
      22.77328	     188.60023	     112.42836	     111.90809	      88.71793	      85.28930	      99.54115	     111.62664	     125.17911
      22.89007	     193.88817	     105.25552	     105.92078	      86.92686	      84.57287	     101.80131	     105.02525	     132.86368
      23.00685	     195.37221	     121.85282	     110.75668	      76.40215	      70.77306	      91.31925	      99.25969	     116.91457
      23.12364	     313.34436	     134.50122	     100.88872	      91.09750	      77.75826	     111.28548	     105.28111	     132.63339
      23.24042	     148.92365	     172.58290	     121.19610	      92.08686	      92.12950	      94.74789	     103.41328	     141.98109
      23.35721	     257.81250	     117.49454	     121.98076	      79.09730	      73.88612	      86.40659	     106.25341	     130.61203
      23.47400	     147.28609	     151.11559	     108.04449	      99.81407	      94.00587	      96.68395	     114.05738	     128.02777
      23.59078	     181.81120	     139.41389	     134.43300	      84.69228	      76.12070	     107.03807	     111.20872	     129.86150
      23.70757	     204.75403	     140.54823	      99.22557	     106.81632	      80.15488	      87.50682	     100.45374	     130.33911
      23.82435	     185.94774	     129.29858	      91.27661	      76.65803	      80.36811	      96.61572	     113.11920	     124.71001
      23.94114	     189.00110	     118.19392	     101.43456	      69.54490	      81.75832	      85.57076	     104.59880	     141.79346
      24.05793	     223.78207	     116.35166	     102.62009	      96.09546	      70.01398	      90.89281	     108.81209	     125.98083
      24.17471	     196.31891	     117.65659	      88.76057	      82.19330	      79.81373	      99.75436	     100.60726	     143.03015
      24.29150	     174.87718	     116.85487	     106.94425	      87.77122	      76.70920	      88.83733	     106.23635	     122.67160
      24.40828	     173.20552	     135.60999	     106.40693	      73.43409	      79.60050	     118.48389	     110.07437	     130.96172
      24.52507	     196.79654	     110.60316	      92.38537	     100.18934	      75.52367	      93.53677	     106.92720	     132.18137
      24.64186	     206.15277	     124.00211	     130.75703	      87.60917	      95.04639	     102.44098	      95.74577	     133.22189
      24.75864	     135.28589	     168.40373	     100.38551	      90.49195	      86.90980	      89.33202	     100.75225	     140.76999
      24.87543	     192.00328	     159.29483	     111.37077	      92.06980	      85.40018	      84.41082	     105.67345	     140.64206
      24.99221	     244.79735	     116.14697	     117.31544	      90.22755	      79.84785	      93.95470	     103.54974	     123.28568
      25.10900	     128.46275	     134.31360	     121.53725	      78.07383	      76.82008	     103.87384	     121.37521	     116.24932
      25.22579	     211.32130	     174.66396	      93.87794	      82.27006	      78.55145	      92.53036	      93.87794	     135.26883
      25.34257	     215.77341	     110.95285	     102.61156	      81.63892	      88.51324	      98.00594	     108.31741	     126.35610
      25.45936	     137.46077	     147.08141	     111.31107	      98.72237	      90.56018	      93.40031	     106.65427	     136.56523
      25.57615	     170.57007	     131.51610	     113.22155	      85.03343	      72.76883	      97.40891	      94.65407	     144.29243
      25.69293	     245.41997	     100.16376	     104.41116	      92.47066	      87.31066	      85.91191	      98.21916	     136.35201
      25.80972	     164.18190	     118.33038	     109.63940	      79.40434	      83.60910	      94.67113	     107.10631	     120.70995
      25.92650	     178.26317	     123.02129	     100.48785	      81.42570	      84.62405	      89.19555	      97.74154	     129.35828
      26.04329	     145.59737	     120.34320	     127.41369	      86.80745	      84.98226	     104.39410	      99.08058	     138.97891
      26.16007	     170.91122	     148.64220	     109.10207	      94.34702	      88.36825	      95.00375	     103.08065	     142.14314
      26.27686	     180.13953	     132.41164	     111.37930	      85.35754	      84.25730	      86.95245	     104.86320	     144.86388
      26.39365	     148.67632	     128.11305	     112.40277	     102.47510	      94.73083	      95.80547	     107.18307	     146.09204
      26.51043	     169.20544	     137.69106	     104.54762	      85.45988	      79.54933	      87.56653	     114.01474	     146.57819
      26.62722	     257.21548	     136.16437	     112.48806	      86.36395	      95.19992	      97.79271	     112.86333	     135.40529
      26.74401	     190.36572	     120.21527	     122.57778	      88.04414	      79.27641	      98.14240	     102.11688	     120.70995
      26.86079	     167.10733	     129.92119	      94.24467	      85.98015	      93.17856	      93.89499	     100.33434	     140.10474
      26.97758	     209.97372	     121.43491	     129.62268	      83.68586	      95.54108	      97.80977	      93.45148	     140.30090
      27.09436	     172.68524	     158.27136	     130.16853	      90.74782	      78.18470	      90.49195	      98.03152	     134.65475
      27.21115	     180.64275	     117.53719	     112.09573	      94.90141	      78.79878	      89.51112	     108.51358	     130.54381
      27.32793	     181.15448	     151.32028	     114.56059	      86.85010	      74.20169	      93.09327	     104.59880	     126.33051
      27.44472	     242.92099	     123.22598	     107.77156	      92.58154	      84.58993	      98.08270	     101.51133	     124.88912
      27.56151	     256.96814	     112.75246	     110.71404	     103.20858	      78.11647	      95.56667	     103.32799	     130.03207
      27.67829	     205.52164	     179.07341	     121.52872	      81.82655	      75.25928	      96.46220	     100.68402	     175.48274
      27.79508	     200.14841	     115.86552	     118.29626	      99.17440	      83.47264	      85.51958	     100.70961	     132.95749
      27.91187	     179.20988	     125.37527	     127.19193	      91.93333	      78.73055	      94.19350	      92.08686	     139.65269
      28.02865	     194.22079	     115.15762	     129.08536	      79.12289	      85.81809	     100.79490	     113.57124	     141.33290
      28.14544	     255.86790	     130.70586	     110.92727	      82.56857	      83.08884	      94.87582	      96.62425	     134.67181
      28.26222	     214.31496	     133.09395	     105.64786	      80.93102	      72.58119	     102.50068	     103.47298	     149.42685
      28.37901	     159.75539	     139.05568	      93.69030	     103.68620	      82.27859	      89.36613	     109.82703	     128.88919
      28.49580	     192.02885	     128.90625	      93.57089	      86.58570	      76.20599	     104.22353	      96.48779	     135.61852
      28.61258	     180.23335	     140.20708	     114.77381	      78.41499	     101.69896	      83.11443	     104.79497	     141.69965
      28.72937	     225.80342	     117.24720	      95.32785	      85.15284	      88.13796	      98.96970	      98.86736	     134.60358
      28.84615	     112.12132	     111.20019	     121.58842	      87.00362	      84.52170	      91.62630	     104.24059	     138.93628
      28.96294	     228.14888	     106.68839	     109.68204	      79.42992	      75.71984	     100.81195	     106.15106	     136.82109
      29.07973	     160.30977	     112.44541	      84.68375	      77.21240	      91.99304	      96.82894	      93.20415	     124.70148
      29.19651	     141.38408	     149.70831	     118.94446	     101.86102	      87.39595	     106.79073	     102.85889	     133.19630
      29.31330	     196.75389	     125.46056	     111.86545	      76.99065	      73.84348	      86.12514	     103.83972	     124.03623
      29.43008	     148.48868	     154.79155	     100.07847	      90.20197	      82.96943	     105.04230	     106.60310	     122.03193
      29.54687	     208.05472	     110.67992	      95.74577	      97.34068	      84.10378	      98.54326	      96.21486	     127.15782
      29.66366	     221.50484	     114.38148	     125.15352	      69.90311	      75.92454	      95.47285	     105.19582	     144.07922

Monitor Diode	  22968.94
