ALV-7004/USB
Date :	"08.06.2022"
Time :	"14:19:29"
Samplename : 	"Samplename needed."
SampMemo(0) : 	""
SampMemo(1) : 	""
SampMemo(2) : 	""
SampMemo(3) : 	""
SampMemo(4) : 	""
SampMemo(5) : 	""
SampMemo(6) : 	""
SampMemo(7) : 	""
SampMemo(8) : 	""
SampMemo(9) : 	""
Temperature [K] :	     297.91756
Viscosity [cp]  :	       0.89490
Refractive Index:	       1.33200
Wavelength [nm] :	     632.80000
Angle [°]       :	      30.00000
Duration [s]    :	        10
FloatDur [ms]   :	         9961
Stop TP [ms]   :	  16777216
Runs            :	         1
Mode            :	"C-CH0/1+1/0"
MeanCR0 [kHz]   :	     589.23338
MeanCR1 [kHz]   :	     586.24788
MeanCR2 [kHz]   :	       0.00000
MeanCR3 [kHz]   :	       0.00000

"Correlation"
  2.50000E-005	  2.57125E+000	  2.58674E+000	  0.00000E+000	  0.00000E+000
  5.00000E-005	  2.56347E+000	  2.57465E+000	  0.00000E+000	  0.00000E+000
  7.50000E-005	  2.56742E+000	  2.56470E+000	  0.00000E+000	  0.00000E+000
  1.00000E-004	  2.56728E+000	  2.55870E+000	  0.00000E+000	  0.00000E+000
  1.25000E-004	  2.56636E+000	  2.55566E+000	  0.00000E+000	  0.00000E+000
  1.50000E-004	  2.56268E+000	  2.56959E+000	  0.00000E+000	  0.00000E+000
  1.75000E-004	  2.58024E+000	  2.56896E+000	  0.00000E+000	  0.00000E+000
  2.00000E-004	  2.56671E+000	  2.55633E+000	  0.00000E+000	  0.00000E+000
  2.25000E-004	  2.56325E+000	  2.56747E+000	  0.00000E+000	  0.00000E+000
  2.50000E-004	  2.56594E+000	  2.56449E+000	  0.00000E+000	  0.00000E+000
  2.75000E-004	  2.57028E+000	  2.56448E+000	  0.00000E+000	  0.00000E+000
  3.00000E-004	  2.57220E+000	  2.57936E+000	  0.00000E+000	  0.00000E+000
  3.25000E-004	  2.55856E+000	  2.55748E+000	  0.00000E+000	  0.00000E+000
  3.50000E-004	  2.56936E+000	  2.57704E+000	  0.00000E+000	  0.00000E+000
  3.75000E-004	  2.56369E+000	  2.56427E+000	  0.00000E+000	  0.00000E+000
  4.00000E-004	  2.57008E+000	  2.56570E+000	  0.00000E+000	  0.00000E+000
  4.50000E-004	  2.56655E+000	  2.56164E+000	  0.00000E+000	  0.00000E+000
  5.00000E-004	  2.56938E+000	  2.57124E+000	  0.00000E+000	  0.00000E+000
  5.50000E-004	  2.57284E+000	  2.56905E+000	  0.00000E+000	  0.00000E+000
  6.00000E-004	  2.57053E+000	  2.56976E+000	  0.00000E+000	  0.00000E+000
  6.50000E-004	  2.56780E+000	  2.57210E+000	  0.00000E+000	  0.00000E+000
  7.00000E-004	  2.56975E+000	  2.57702E+000	  0.00000E+000	  0.00000E+000
  7.50000E-004	  2.57255E+000	  2.58386E+000	  0.00000E+000	  0.00000E+000
  8.00000E-004	  2.57649E+000	  2.57735E+000	  0.00000E+000	  0.00000E+000
  9.00000E-004	  2.57168E+000	  2.56921E+000	  0.00000E+000	  0.00000E+000
  1.00000E-003	  2.56901E+000	  2.56820E+000	  0.00000E+000	  0.00000E+000
  1.10000E-003	  2.57102E+000	  2.57683E+000	  0.00000E+000	  0.00000E+000
  1.20000E-003	  2.57198E+000	  2.57375E+000	  0.00000E+000	  0.00000E+000
  1.30000E-003	  2.56629E+000	  2.56623E+000	  0.00000E+000	  0.00000E+000
  1.40000E-003	  2.56726E+000	  2.56310E+000	  0.00000E+000	  0.00000E+000
  1.50000E-003	  2.57256E+000	  2.57383E+000	  0.00000E+000	  0.00000E+000
  1.60000E-003	  2.56858E+000	  2.56826E+000	  0.00000E+000	  0.00000E+000
  1.80000E-003	  2.56863E+000	  2.56740E+000	  0.00000E+000	  0.00000E+000
  2.00000E-003	  2.56728E+000	  2.56678E+000	  0.00000E+000	  0.00000E+000
  2.20000E-003	  2.56933E+000	  2.56637E+000	  0.00000E+000	  0.00000E+000
  2.40000E-003	  2.56527E+000	  2.56604E+000	  0.00000E+000	  0.00000E+000
  2.60000E-003	  2.56840E+000	  2.56949E+000	  0.00000E+000	  0.00000E+000
  2.80000E-003	  2.56456E+000	  2.56413E+000	  0.00000E+000	  0.00000E+000
  3.00000E-003	  2.56910E+000	  2.56964E+000	  0.00000E+000	  0.00000E+000
  3.20000E-003	  2.56639E+000	  2.56681E+000	  0.00000E+000	  0.00000E+000
  3.60000E-003	  2.56640E+000	  2.56560E+000	  0.00000E+000	  0.00000E+000
  4.00000E-003	  2.56802E+000	  2.56823E+000	  0.00000E+000	  0.00000E+000
  4.40000E-003	  2.56931E+000	  2.56943E+000	  0.00000E+000	  0.00000E+000
  4.80000E-003	  2.56748E+000	  2.56498E+000	  0.00000E+000	  0.00000E+000
  5.20000E-003	  2.56825E+000	  2.56729E+000	  0.00000E+000	  0.00000E+000
  5.60000E-003	  2.56687E+000	  2.56672E+000	  0.00000E+000	  0.00000E+000
  6.00000E-003	  2.56707E+000	  2.56739E+000	  0.00000E+000	  0.00000E+000
  6.40000E-003	  2.56655E+000	  2.56779E+000	  0.00000E+000	  0.00000E+000
  7.20000E-003	  2.56572E+000	  2.56580E+000	  0.00000E+000	  0.00000E+000
  8.00000E-003	  2.56667E+000	  2.56671E+000	  0.00000E+000	  0.00000E+000
  8.80000E-003	  2.56677E+000	  2.56714E+000	  0.00000E+000	  0.00000E+000
  9.60000E-003	  2.56490E+000	  2.56449E+000	  0.00000E+000	  0.00000E+000
  1.04000E-002	  2.56443E+000	  2.56584E+000	  0.00000E+000	  0.00000E+000
  1.12000E-002	  2.56465E+000	  2.56490E+000	  0.00000E+000	  0.00000E+000
  1.20000E-002	  2.56534E+000	  2.56441E+000	  0.00000E+000	  0.00000E+000
  1.28000E-002	  2.56461E+000	  2.56394E+000	  0.00000E+000	  0.00000E+000
  1.44000E-002	  2.56306E+000	  2.56379E+000	  0.00000E+000	  0.00000E+000
  1.60000E-002	  2.56273E+000	  2.56230E+000	  0.00000E+000	  0.00000E+000
  1.76000E-002	  2.56188E+000	  2.56144E+000	  0.00000E+000	  0.00000E+000
  1.92000E-002	  2.56076E+000	  2.56056E+000	  0.00000E+000	  0.00000E+000
  2.08000E-002	  2.55945E+000	  2.55937E+000	  0.00000E+000	  0.00000E+000
  2.24000E-002	  2.55968E+000	  2.55956E+000	  0.00000E+000	  0.00000E+000
  2.40000E-002	  2.55901E+000	  2.55944E+000	  0.00000E+000	  0.00000E+000
  2.56000E-002	  2.55858E+000	  2.55834E+000	  0.00000E+000	  0.00000E+000
  2.88000E-002	  2.55679E+000	  2.55596E+000	  0.00000E+000	  0.00000E+000
  3.20000E-002	  2.55544E+000	  2.55522E+000	  0.00000E+000	  0.00000E+000
  3.52000E-002	  2.55449E+000	  2.55481E+000	  0.00000E+000	  0.00000E+000
  3.84000E-002	  2.55308E+000	  2.55311E+000	  0.00000E+000	  0.00000E+000
  4.16000E-002	  2.55167E+000	  2.55173E+000	  0.00000E+000	  0.00000E+000
  4.48000E-002	  2.55038E+000	  2.55028E+000	  0.00000E+000	  0.00000E+000
  4.80000E-002	  2.54886E+000	  2.54868E+000	  0.00000E+000	  0.00000E+000
  5.12000E-002	  2.54753E+000	  2.54747E+000	  0.00000E+000	  0.00000E+000
  5.76000E-002	  2.54450E+000	  2.54461E+000	  0.00000E+000	  0.00000E+000
  6.40000E-002	  2.54181E+000	  2.54233E+000	  0.00000E+000	  0.00000E+000
  7.04000E-002	  2.53898E+000	  2.53863E+000	  0.00000E+000	  0.00000E+000
  7.68000E-002	  2.53568E+000	  2.53503E+000	  0.00000E+000	  0.00000E+000
  8.32000E-002	  2.53326E+000	  2.53304E+000	  0.00000E+000	  0.00000E+000
  8.96000E-002	  2.53052E+000	  2.53079E+000	  0.00000E+000	  0.00000E+000
  9.60000E-002	  2.52798E+000	  2.52789E+000	  0.00000E+000	  0.00000E+000
  1.02400E-001	  2.52514E+000	  2.52490E+000	  0.00000E+000	  0.00000E+000
  1.15200E-001	  2.51961E+000	  2.51983E+000	  0.00000E+000	  0.00000E+000
  1.28000E-001	  2.51393E+000	  2.51374E+000	  0.00000E+000	  0.00000E+000
  1.40800E-001	  2.50862E+000	  2.50860E+000	  0.00000E+000	  0.00000E+000
  1.53600E-001	  2.50330E+000	  2.50350E+000	  0.00000E+000	  0.00000E+000
  1.66400E-001	  2.49789E+000	  2.49838E+000	  0.00000E+000	  0.00000E+000
  1.79200E-001	  2.49196E+000	  2.49219E+000	  0.00000E+000	  0.00000E+000
  1.92000E-001	  2.48654E+000	  2.48653E+000	  0.00000E+000	  0.00000E+000
  2.04800E-001	  2.48091E+000	  2.48113E+000	  0.00000E+000	  0.00000E+000
  2.30400E-001	  2.47030E+000	  2.47044E+000	  0.00000E+000	  0.00000E+000
  2.56000E-001	  2.45961E+000	  2.45977E+000	  0.00000E+000	  0.00000E+000
  2.81600E-001	  2.44844E+000	  2.44838E+000	  0.00000E+000	  0.00000E+000
  3.07200E-001	  2.43808E+000	  2.43816E+000	  0.00000E+000	  0.00000E+000
  3.32800E-001	  2.42762E+000	  2.42776E+000	  0.00000E+000	  0.00000E+000
  3.58400E-001	  2.41686E+000	  2.41716E+000	  0.00000E+000	  0.00000E+000
  3.84000E-001	  2.40652E+000	  2.40680E+000	  0.00000E+000	  0.00000E+000
  4.09600E-001	  2.39609E+000	  2.39635E+000	  0.00000E+000	  0.00000E+000
  4.60800E-001	  2.37523E+000	  2.37533E+000	  0.00000E+000	  0.00000E+000
  5.12000E-001	  2.35476E+000	  2.35487E+000	  0.00000E+000	  0.00000E+000
  5.63200E-001	  2.33460E+000	  2.33494E+000	  0.00000E+000	  0.00000E+000
  6.14400E-001	  2.31447E+000	  2.31504E+000	  0.00000E+000	  0.00000E+000
  6.65600E-001	  2.29459E+000	  2.29515E+000	  0.00000E+000	  0.00000E+000
  7.16800E-001	  2.27497E+000	  2.27532E+000	  0.00000E+000	  0.00000E+000
  7.68000E-001	  2.25577E+000	  2.25608E+000	  0.00000E+000	  0.00000E+000
  8.19200E-001	  2.23673E+000	  2.23707E+000	  0.00000E+000	  0.00000E+000
  9.21600E-001	  2.19916E+000	  2.19937E+000	  0.00000E+000	  0.00000E+000
  1.02400E+000	  2.16246E+000	  2.16260E+000	  0.00000E+000	  0.00000E+000
  1.12640E+000	  2.12645E+000	  2.12682E+000	  0.00000E+000	  0.00000E+000
  1.22880E+000	  2.09081E+000	  2.09126E+000	  0.00000E+000	  0.00000E+000
  1.33120E+000	  2.05568E+000	  2.05620E+000	  0.00000E+000	  0.00000E+000
  1.43360E+000	  2.02133E+000	  2.02180E+000	  0.00000E+000	  0.00000E+000
  1.53600E+000	  1.98756E+000	  1.98822E+000	  0.00000E+000	  0.00000E+000
  1.63840E+000	  1.95460E+000	  1.95524E+000	  0.00000E+000	  0.00000E+000
  1.84320E+000	  1.89051E+000	  1.89110E+000	  0.00000E+000	  0.00000E+000
  2.04800E+000	  1.82822E+000	  1.82889E+000	  0.00000E+000	  0.00000E+000
  2.25280E+000	  1.76775E+000	  1.76860E+000	  0.00000E+000	  0.00000E+000
  2.45760E+000	  1.71040E+000	  1.71140E+000	  0.00000E+000	  0.00000E+000
  2.66240E+000	  1.65397E+000	  1.65472E+000	  0.00000E+000	  0.00000E+000
  2.86720E+000	  1.59934E+000	  1.60018E+000	  0.00000E+000	  0.00000E+000
  3.07200E+000	  1.54623E+000	  1.54700E+000	  0.00000E+000	  0.00000E+000
  3.27680E+000	  1.49472E+000	  1.49514E+000	  0.00000E+000	  0.00000E+000
  3.68640E+000	  1.39638E+000	  1.39641E+000	  0.00000E+000	  0.00000E+000
  4.09600E+000	  1.30360E+000	  1.30350E+000	  0.00000E+000	  0.00000E+000
  4.50560E+000	  1.21692E+000	  1.21706E+000	  0.00000E+000	  0.00000E+000
  4.91520E+000	  1.13612E+000	  1.13654E+000	  0.00000E+000	  0.00000E+000
  5.32480E+000	  1.06233E+000	  1.06282E+000	  0.00000E+000	  0.00000E+000
  5.73440E+000	  9.92777E-001	  9.93211E-001	  0.00000E+000	  0.00000E+000
  6.14400E+000	  9.27089E-001	  9.27574E-001	  0.00000E+000	  0.00000E+000
  6.55360E+000	  8.66153E-001	  8.66715E-001	  0.00000E+000	  0.00000E+000
  7.37280E+000	  7.51330E-001	  7.51901E-001	  0.00000E+000	  0.00000E+000
  8.19200E+000	  6.46431E-001	  6.46796E-001	  0.00000E+000	  0.00000E+000
  9.01120E+000	  5.53549E-001	  5.54110E-001	  0.00000E+000	  0.00000E+000
  9.83040E+000	  4.76426E-001	  4.76832E-001	  0.00000E+000	  0.00000E+000
  1.06496E+001	  4.11491E-001	  4.11619E-001	  0.00000E+000	  0.00000E+000
  1.14688E+001	  3.56733E-001	  3.56541E-001	  0.00000E+000	  0.00000E+000
  1.22880E+001	  3.08675E-001	  3.08104E-001	  0.00000E+000	  0.00000E+000
  1.31072E+001	  2.65067E-001	  2.64846E-001	  0.00000E+000	  0.00000E+000
  1.47456E+001	  1.89421E-001	  1.89875E-001	  0.00000E+000	  0.00000E+000
  1.63840E+001	  1.30881E-001	  1.30845E-001	  0.00000E+000	  0.00000E+000
  1.80224E+001	  8.70082E-002	  8.65624E-002	  0.00000E+000	  0.00000E+000
  1.96608E+001	  5.50354E-002	  5.48262E-002	  0.00000E+000	  0.00000E+000
  2.12992E+001	  2.45768E-002	  2.48286E-002	  0.00000E+000	  0.00000E+000
  2.29376E+001	  4.51706E-003	  4.23494E-003	  0.00000E+000	  0.00000E+000
  2.45760E+001	 -7.39341E-003	 -7.70555E-003	  0.00000E+000	  0.00000E+000
  2.62144E+001	 -8.12843E-003	 -8.83467E-003	  0.00000E+000	  0.00000E+000
  2.94912E+001	 -1.47608E-002	 -1.51371E-002	  0.00000E+000	  0.00000E+000
  3.27680E+001	 -1.69848E-002	 -1.68332E-002	  0.00000E+000	  0.00000E+000
  3.60448E+001	 -1.55357E-002	 -1.51469E-002	  0.00000E+000	  0.00000E+000
  3.93216E+001	 -1.54814E-002	 -1.50905E-002	  0.00000E+000	  0.00000E+000
  4.25984E+001	 -6.93577E-003	 -6.53930E-003	  0.00000E+000	  0.00000E+000
  4.58752E+001	 -2.61163E-003	 -3.31797E-003	  0.00000E+000	  0.00000E+000
  4.91520E+001	  1.50368E-003	  1.60594E-004	  0.00000E+000	  0.00000E+000
  5.24288E+001	 -5.69959E-003	 -7.09488E-003	  0.00000E+000	  0.00000E+000
  5.89824E+001	 -2.81294E-002	 -2.92603E-002	  0.00000E+000	  0.00000E+000
  6.55360E+001	 -1.00881E-002	 -1.11876E-002	  0.00000E+000	  0.00000E+000
  7.20896E+001	 -1.33821E-002	 -1.42339E-002	  0.00000E+000	  0.00000E+000
  7.86432E+001	 -5.81665E-003	 -6.24005E-003	  0.00000E+000	  0.00000E+000
  8.51968E+001	  1.39242E-002	  1.40034E-002	  0.00000E+000	  0.00000E+000
  9.17504E+001	  1.07238E-002	  1.03820E-002	  0.00000E+000	  0.00000E+000
  9.83040E+001	 -2.56099E-002	 -2.61052E-002	  0.00000E+000	  0.00000E+000
  1.04858E+002	 -1.50501E-002	 -1.56611E-002	  0.00000E+000	  0.00000E+000
  1.17965E+002	 -1.84417E-002	 -1.89838E-002	  0.00000E+000	  0.00000E+000
  1.31072E+002	 -4.22364E-002	 -4.17445E-002	  0.00000E+000	  0.00000E+000
  1.44179E+002	  5.19541E-003	  5.76832E-003	  0.00000E+000	  0.00000E+000
  1.57286E+002	  5.07218E-002	  5.07702E-002	  0.00000E+000	  0.00000E+000
  1.70394E+002	  4.35545E-002	  4.37587E-002	  0.00000E+000	  0.00000E+000
  1.83501E+002	  1.05854E-002	  1.07966E-002	  0.00000E+000	  0.00000E+000
  1.96608E+002	  2.98917E-002	  3.05358E-002	  0.00000E+000	  0.00000E+000
  2.09715E+002	  2.20754E-002	  2.25530E-002	  0.00000E+000	  0.00000E+000
  2.35930E+002	  1.03947E-002	  1.00244E-002	  0.00000E+000	  0.00000E+000
  2.62144E+002	  1.47422E-002	  1.49955E-002	  0.00000E+000	  0.00000E+000
  2.88358E+002	  5.19047E-003	  5.20456E-003	  0.00000E+000	  0.00000E+000
  3.14573E+002	 -2.84036E-002	 -2.83792E-002	  0.00000E+000	  0.00000E+000
  3.40787E+002	  1.65851E-002	  1.57272E-002	  0.00000E+000	  0.00000E+000
  3.67002E+002	  6.10946E-003	  6.16412E-003	  0.00000E+000	  0.00000E+000
  3.93216E+002	 -3.57109E-002	 -3.52670E-002	  0.00000E+000	  0.00000E+000
  4.19430E+002	 -1.93336E-002	 -1.96948E-002	  0.00000E+000	  0.00000E+000
  4.71859E+002	  1.60212E-002	  1.59922E-002	  0.00000E+000	  0.00000E+000
  5.24288E+002	  1.76324E-002	  1.76836E-002	  0.00000E+000	  0.00000E+000
  5.76717E+002	  5.55088E-003	  5.45866E-003	  0.00000E+000	  0.00000E+000
  6.29146E+002	  1.54474E-002	  1.52296E-002	  0.00000E+000	  0.00000E+000
  6.81574E+002	 -7.61583E-003	 -7.47137E-003	  0.00000E+000	  0.00000E+000
  7.34003E+002	  1.86300E-002	  1.88191E-002	  0.00000E+000	  0.00000E+000
  7.86432E+002	  4.43837E-003	  4.23514E-003	  0.00000E+000	  0.00000E+000
  8.38861E+002	 -1.72131E-002	 -1.73236E-002	  0.00000E+000	  0.00000E+000
  9.43718E+002	  4.04462E-004	  1.65725E-004	  0.00000E+000	  0.00000E+000
  1.04858E+003	 -1.34488E-002	 -1.33113E-002	  0.00000E+000	  0.00000E+000
  1.15343E+003	  2.39004E-002	  2.42977E-002	  0.00000E+000	  0.00000E+000
  1.25829E+003	 -8.78747E-003	 -8.62771E-003	  0.00000E+000	  0.00000E+000
  1.36315E+003	  1.40560E-002	  1.37737E-002	  0.00000E+000	  0.00000E+000
  1.46801E+003	 -2.28757E-002	 -2.26529E-002	  0.00000E+000	  0.00000E+000
  1.57286E+003	  1.48963E-002	  1.49201E-002	  0.00000E+000	  0.00000E+000
  1.67772E+003	  1.27435E-002	  1.27556E-002	  0.00000E+000	  0.00000E+000
  1.88744E+003	 -1.81604E-002	 -1.81845E-002	  0.00000E+000	  0.00000E+000
  2.09715E+003	 -3.27093E-002	 -3.31577E-002	  0.00000E+000	  0.00000E+000
  2.30687E+003	 -1.47304E-003	 -1.53725E-003	  0.00000E+000	  0.00000E+000
  2.51658E+003	  1.34554E-002	  1.34743E-002	  0.00000E+000	  0.00000E+000
  2.72630E+003	 -2.48843E-002	 -2.49678E-002	  0.00000E+000	  0.00000E+000
  2.93601E+003	 -2.94029E-002	 -2.91428E-002	  0.00000E+000	  0.00000E+000
  3.14573E+003	 -1.33216E-002	 -1.32350E-002	  0.00000E+000	  0.00000E+000

"Count Rate"
       0.03906	     621.85559	     619.01794	     621.85559	     619.01794
       0.07813	     805.48511	     791.83368	     805.48511	     791.83368
       0.11719	     449.70447	     447.83829	     449.70447	     447.83829
       0.15625	     446.20215	     437.61249	     446.20215	     437.61249
       0.19531	     281.72040	     279.08725	     281.72040	     279.08725
       0.23438	     594.75726	     579.13739	     594.75726	     579.13739
       0.27344	    1045.89331	    1041.87976	    1045.89331	    1041.87976
       0.31250	    1017.36340	    1006.72858	    1017.36340	    1006.72858
       0.35156	     420.38205	     413.35181	     420.38205	     413.35181
       0.39063	     995.07117	     984.84540	     995.07117	     984.84540
       0.42969	     413.65860	     410.84650	     413.65860	     410.84650
       0.46875	     595.29413	     596.41895	     595.29413	     596.41895
       0.50781	     415.83157	     410.05399	     415.83157	     410.05399
       0.54688	     800.62787	     804.99939	     800.62787	     804.99939
       0.58594	     472.96814	     474.39975	     472.96814	     474.39975
       0.62500	     439.32532	     434.39136	     439.32532	     434.39136
       0.66406	     886.67786	     883.17554	     886.67786	     883.17554
       0.70313	     287.75360	     283.38208	     287.75360	     283.38208
       0.74219	     687.40289	     692.77142	     687.40289	     692.77142
       0.78125	     346.06613	     349.46622	     346.06613	     349.46622
       0.82031	     351.76703	     353.40314	     351.76703	     353.40314
       0.85938	     400.08386	     395.73788	     400.08386	     395.73788
       0.89844	     927.12085	     930.98108	     927.12085	     930.98108
       0.93750	     719.71637	     721.30133	     719.71637	     721.30133
       0.97656	     445.12845	     443.31335	     445.12845	     443.31335
       1.01563	     524.96625	     522.76770	     524.96625	     522.76770
       1.05469	     654.24573	     656.54657	     654.24573	     656.54657
       1.09375	     802.57080	     796.15411	     802.57080	     796.15411
       1.13281	     503.59436	     497.79123	     503.59436	     497.79123
       1.17188	     601.88971	     595.60089	     601.88971	     595.60089
       1.21094	     276.93985	     272.03146	     276.93985	     272.03146
       1.25000	     323.87619	     321.98444	     323.87619	     321.98444
       1.28906	     391.08517	     393.66718	     391.08517	     393.66718
       1.32813	     346.44962	     346.83307	     346.44962	     346.83307
       1.36719	     661.60834	     654.24573	     661.60834	     654.24573
       1.40625	     330.59964	     322.36789	     330.59964	     322.36789
       1.44531	     413.68414	     403.15158	     413.68414	     403.15158
       1.48438	     288.46942	     285.06934	     288.46942	     285.06934
       1.52344	     465.32437	     458.80542	     465.32437	     458.80542
       1.56250	     292.30408	     291.86948	     292.30408	     291.86948
       1.60156	     304.77954	     306.79913	     304.77954	     306.79913
       1.64063	     620.75629	     616.71710	     620.75629	     616.71710
       1.67969	     499.01834	     496.71753	     499.01834	     496.71753
       1.71875	     472.30347	     470.97412	     472.30347	     470.97412
       1.75781	     569.03943	     559.42719	     569.03943	     559.42719
       1.79688	     469.87485	     460.72278	     469.87485	     460.72278
       1.83594	     522.46094	     524.99182	     522.46094	     524.99182
       1.87500	     478.46451	     479.25699	     478.46451	     479.25699
       1.91406	     445.79312	     451.00827	     445.79312	     451.00827
       1.95313	     356.72653	     352.27832	     356.72653	     352.27832
       1.99219	     727.66687	     724.95709	     727.66687	     724.95709
       2.03125	     837.38959	     832.07214	     837.38959	     832.07214
       2.07031	     719.53741	     717.87573	     719.53741	     717.87573
       2.10938	    1168.96069	    1160.90784	    1168.96069	    1160.90784
       2.14844	     519.46991	     516.83679	     519.46991	     516.83679
       2.18750	     393.33484	     395.68677	     393.33484	     395.68677
       2.22656	     588.51953	     578.19147	     588.51953	     578.19147
       2.26563	    1059.13574	    1060.64404	    1059.13574	    1060.64404
       2.30469	     645.98846	     643.02295	     645.98846	     643.02295
       2.34375	     585.37512	     575.66058	     585.37512	     575.66058
       2.38281	     177.41737	     176.49706	     177.41737	     176.49706
       2.42188	     198.32912	     198.35468	     198.32912	     198.35468
       2.46094	     558.60907	     547.61639	     558.60907	     547.61639
       2.50000	     836.54596	     840.50842	     836.54596	     840.50842
       2.53906	     449.88342	     441.90732	     449.88342	     441.90732
       2.57813	     393.61606	     394.89429	     393.61606	     394.89429
       2.61719	     716.62305	     708.51910	     716.62305	     708.51910
       2.65625	     590.87146	     588.54510	     590.87146	     588.54510
       2.69531	     465.09430	     463.89276	     465.09430	     463.89276
       2.73438	     401.23425	     398.47330	     401.23425	     398.47330
       2.77344	     925.56140	     926.43060	     925.56140	     926.43060
       2.81250	     757.24500	     756.58032	     757.24500	     756.58032
       2.85156	     760.00592	     747.65833	     760.00592	     747.65833
       2.89063	     287.03781	     277.60452	     287.03781	     277.60452
       2.92969	     710.48755	     707.24091	     710.48755	     707.24091
       2.96875	     793.80219	     791.14343	     793.80219	     791.14343
       3.00781	     408.26450	     407.03738	     408.26450	     407.03738
       3.04688	     447.32700	     434.03348	     447.32700	     434.03348
       3.08594	     508.55386	     501.57477	     508.55386	     501.57477
       3.12500	     208.63159	     210.93239	     208.63159	     210.93239
       3.16406	     862.69843	     852.57489	     862.69843	     852.57489
       3.20313	     361.02136	     359.46191	     361.02136	     359.46191
       3.24219	     658.84735	     658.51501	     658.84735	     658.51501
       3.28125	     358.43936	     355.24377	     358.43936	     355.24377
       3.32031	     249.84151	     250.42949	     249.84151	     250.42949
       3.35938	    1002.66382	     995.86371	    1002.66382	     995.86371
       3.39844	    1073.86084	    1071.84131	    1073.86084	    1071.84131
       3.43750	     396.30032	     392.15887	     396.30032	     392.15887
       3.47656	     604.80408	     600.61151	     604.80408	     600.61151
       3.51563	     334.22980	     334.97116	     334.22980	     334.97116
       3.55469	     460.08365	     452.66995	     460.08365	     452.66995
       3.59375	     678.22522	     679.40118	     678.22522	     679.40118
       3.63281	     298.89972	     308.02621	     298.89972	     308.02621
       3.67188	     555.59247	     553.21503	     555.59247	     553.21503
       3.71094	     453.71811	     452.08197	     453.71811	     452.08197
       3.75000	     919.45148	     916.74170	     919.45148	     916.74170
       3.78906	     357.51901	     347.90680	     357.51901	     347.90680
       3.82813	     402.48691	     396.81161	     402.48691	     396.81161
       3.86719	     398.39661	     395.12436	     398.39661	     395.12436
       3.90625	     410.56528	     413.76083	     410.56528	     413.76083
       3.94531	     576.91327	     574.94476	     576.91327	     574.94476
       3.98438	     795.33606	     797.12555	     795.33606	     797.12555
       4.02344	     552.70374	     554.62103	     552.70374	     554.62103
       4.06250	     510.77798	     507.09671	     510.77798	     507.09671
       4.10156	     645.86060	     640.59436	     645.86060	     640.59436
       4.14063	     653.19763	     644.76135	     653.19763	     644.76135
       4.17969	     836.75049	     838.36102	     836.75049	     838.36102
       4.21875	     416.85416	     416.21503	     416.85416	     416.21503
       4.25781	     303.09229	     308.10291	     303.09229	     308.10291
       4.29688	     321.24304	     326.66272	     321.24304	     326.66272
       4.33594	     340.51865	     339.62390	     340.51865	     339.62390
       4.37500	    1406.65906	    1385.64502	    1406.65906	    1385.64502
       4.41406	     761.25861	     759.34125	     761.25861	     759.34125
       4.45313	     846.59277	     839.02570	     846.59277	     839.02570
       4.49219	     585.22168	     583.56000	     585.22168	     583.56000
       4.53125	     718.13135	     703.68744	     718.13135	     703.68744
       4.57031	    1038.96533	    1032.01184	    1038.96533	    1032.01184
       4.60938	    1126.03796	    1122.40784	    1126.03796	    1122.40784
       4.64844	    1033.41785	    1025.49292	    1033.41785	    1025.49292
       4.68750	     432.26953	     425.31598	     432.26953	     425.31598
       4.72656	     665.23846	     671.11829	     665.23846	     671.11829
       4.76563	     376.23221	     374.92844	     376.23221	     374.92844
       4.80469	    1050.06030	    1049.70239	    1050.06030	    1049.70239
       4.84375	     564.02875	     562.92950	     564.02875	     562.92950
       4.88281	     594.19482	     588.74957	     594.19482	     588.74957
       4.92188	     456.55576	     463.04913	     456.55576	     463.04913
       4.96094	     375.54196	     372.70432	     375.54196	     372.70432
       5.00000	     314.18726	     314.85193	     314.18726	     314.85193
       5.03906	     404.35312	     394.25516	     404.35312	     394.25516
       5.07813	     222.81987	     217.32350	     222.81987	     217.32350
       5.11719	     762.92029	     766.24365	     762.92029	     766.24365
       5.15625	     421.89035	     421.48132	     421.89035	     421.48132
       5.19531	     345.96390	     349.59406	     345.96390	     349.59406
       5.23438	     579.59753	     574.20343	     579.59753	     574.20343
       5.27344	     740.90930	     747.17261	     740.90930	     747.17261
       5.31250	     444.97507	     450.67593	     444.97507	     450.67593
       5.35156	     688.98785	     688.83447	     688.98785	     688.83447
       5.39063	     364.85602	     370.48022	     364.85602	     370.48022
       5.42969	     478.61789	     477.23740	     478.61789	     477.23740
       5.46875	     411.40891	     400.39063	     411.40891	     400.39063
       5.50781	     752.89905	     755.68555	     752.89905	     755.68555
       5.54688	     386.66251	     379.14658	     386.66251	     379.14658
       5.58594	     245.36772	     242.58119	     245.36772	     242.58119
       5.62500	     438.89072	     438.25162	     438.89072	     438.25162
       5.66406	     532.17542	     524.30157	     532.17542	     524.30157
       5.70313	     755.89008	     759.82697	     755.89008	     759.82697
       5.74219	     843.14160	     843.44836	     843.14160	     843.44836
       5.78125	     568.75818	     558.94141	     568.75818	     558.94141
       5.82031	     716.21399	     713.73425	     716.21399	     713.73425
       5.85938	     654.78259	     660.27899	     654.78259	     660.27899
       5.89844	     695.22559	     692.13226	     695.22559	     692.13226
       5.93750	    1008.21130	     999.03369	    1008.21130	     999.03369
       5.97656	     653.55554	     652.20062	     653.55554	     652.20062
       6.01563	     931.00665	     916.66498	     931.00665	     916.66498
       6.05469	     862.67285	     865.56165	     862.67285	     865.56165
       6.09375	     823.86597	     818.62524	     823.86597	     818.62524
       6.13281	    1283.87292	    1272.72681	    1283.87292	    1272.72681
       6.17188	     485.08569	     480.22845	     485.08569	     480.22845
       6.21094	     805.63849	     800.37225	     805.63849	     800.37225
       6.25000	    1404.86951	    1397.71155	    1404.86951	    1397.71155
       6.28906	     749.44781	     750.21478	     749.44781	     750.21478
       6.32813	     274.53677	     269.98630	     274.53677	     269.98630
       6.36719	     439.04410	     444.41263	     439.04410	     444.41263
       6.40625	     523.15118	     530.82056	     523.15118	     530.82056
       6.44531	     443.41562	     430.94016	     443.41562	     430.94016
       6.48438	     405.98926	     400.33951	     405.98926	     400.33951
       6.52344	     238.36307	     233.37799	     238.36307	     233.37799
       6.56250	     462.07770	     455.73770	     462.07770	     455.73770
       6.60156	     472.07339	     470.18161	     472.07339	     470.18161
       6.64063	     505.84406	     494.92801	     505.84406	     494.92801
       6.67969	     667.43701	     663.19330	     667.43701	     663.19330
       6.71875	    1162.62073	    1158.07019	    1162.62073	    1158.07019
       6.75781	    1086.84766	    1077.72107	    1086.84766	    1077.72107
       6.79688	     728.15265	     733.16327	     728.15265	     733.16327
       6.83594	     306.92694	     304.01260	     306.92694	     304.01260
       6.87500	     696.24817	     684.79529	     696.24817	     684.79529
       6.91406	     321.62653	     318.78885	     321.62653	     318.78885
       6.95313	     699.13696	     702.81824	     699.13696	     702.81824
       6.99219	     567.19873	     568.09351	     567.19873	     568.09351
       7.03125	     522.99780	     525.11963	     522.99780	     525.11963
       7.07031	     690.36835	     686.86603	     690.36835	     686.86603
       7.10938	     874.68811	     876.57990	     874.68811	     876.57990
       7.14844	     834.70532	     824.37726	     834.70532	     824.37726
       7.18750	     766.42261	     765.11884	     766.42261	     765.11884
       7.22656	     504.94928	     499.29953	     504.94928	     499.29953
       7.26563	     362.93869	     364.95828	     362.93869	     364.95828
       7.30469	     264.00421	     265.64035	     264.00421	     265.64035
       7.34375	     899.12775	     895.31866	     899.12775	     895.31866
       7.38281	     184.08971	     181.37987	     184.08971	     181.37987
       7.42188	     760.31274	     746.48236	     760.31274	     746.48236
       7.46094	    1202.47571	    1199.22900	    1202.47571	    1199.22900
       7.50000	     570.93115	     565.92053	     570.93115	     565.92053
       7.53906	     591.91962	     586.88342	     591.91962	     586.88342
       7.57813	     353.65878	     351.86929	     353.65878	     351.86929
       7.61719	     557.48425	     555.54138	     557.48425	     555.54138
       7.65625	    1171.18481	    1174.81494	    1171.18481	    1174.81494
       7.69531	     327.63416	     324.87320	     327.63416	     324.87320
       7.73438	     754.73969	     749.55005	     754.73969	     749.55005
       7.77344	    1147.02637	    1135.54797	    1147.02637	    1135.54797
       7.81250	     488.38351	     485.72482	     488.38351	     485.72482
       7.85156	     330.11392	     327.86426	     330.11392	     327.86426
       7.89063	     426.33856	     426.36414	     426.33856	     426.36414
       7.92969	     313.95718	     313.16467	     313.95718	     313.16467
       7.96875	    1131.04858	    1139.71497	    1131.04858	    1139.71497
       8.00781	     527.42047	     524.65948	     527.42047	     524.65948
       8.04688	     701.07983	     706.90857	     701.07983	     706.90857
       8.08594	     608.71545	     604.06274	     608.71545	     604.06274
       8.12500	     648.41705	     640.92670	     648.41705	     640.92670
       8.16406	     367.59143	     364.06354	     367.59143	     364.06354
       8.20313	     403.12604	     396.73492	     403.12604	     396.73492
       8.24219	     590.87146	     586.42322	     590.87146	     586.42322
       8.28125	     427.77017	     420.10083	     427.77017	     420.10083
       8.32031	     904.11285	     903.78052	     904.11285	     903.78052
       8.35938	     408.49457	     409.77280	     408.49457	     409.77280
       8.39844	     202.64951	     203.44200	     202.64951	     203.44200
       8.43750	     353.12195	     357.67242	     353.12195	     357.67242
       8.47656	     574.99591	     562.82721	     574.99591	     562.82721
       8.51563	     459.80246	     454.40836	     459.80246	     454.40836
       8.55469	     445.48636	     446.73901	     445.48636	     446.73901
       8.59375	     781.60791	     777.67096	     781.60791	     777.67096
       8.63281	     846.59277	     848.51013	     846.59277	     848.51013
       8.67188	    1150.57983	    1135.49683	    1150.57983	    1135.49683
       8.71094	     704.42877	     704.24988	     704.42877	     704.24988
       8.75000	     206.04958	     200.29758	     206.04958	     200.29758
       8.78906	     407.57425	     407.77875	     407.57425	     407.77875
       8.82813	     968.89319	     960.32910	     968.89319	     960.32910
       8.86719	     620.50067	     611.39972	     620.50067	     611.39972
       8.90625	     910.01819	     906.05573	     910.01819	     906.05573
       8.94531	     701.41217	     709.49054	     701.41217	     709.49054
       8.98438	     558.94141	     560.24524	     558.94141	     560.24524
       9.02344	     344.86462	     349.26172	     344.86462	     349.26172
       9.06250	     388.86105	     380.98721	     388.86105	     380.98721
       9.10156	     491.93698	     495.77164	     491.93698	     495.77164
       9.14063	     413.37738	     414.09317	     413.37738	     414.09317
       9.17969	     520.95264	     514.58710	     520.95264	     514.58710
       9.21875	     416.41956	     407.11407	     416.41956	     407.11407
       9.25781	     551.63000	     545.18774	     551.63000	     545.18774
       9.29688	     261.21768	     260.42520	     261.21768	     260.42520
       9.33594	     340.36526	     339.41937	     340.36526	     339.41937
       9.37500	     643.71320	     634.51001	     643.71320	     634.51001
       9.41406	     618.50665	     614.10956	     618.50665	     614.10956
       9.45313	     767.75195	     755.40436	     767.75195	     755.40436
       9.49219	     371.78400	     370.07117	     371.78400	     370.07117
       9.53125	     838.61670	     835.75348	     838.61670	     835.75348
       9.57031	    1007.75116	    1025.33948	    1007.75116	    1025.33948
       9.60938	     780.68762	     774.27094	     780.68762	     774.27094
       9.64844	     582.35846	     575.14929	     582.35846	     575.14929
       9.68750	    1136.41711	    1122.94458	    1136.41711	    1122.94458
       9.72656	     547.38629	     536.31689	     547.38629	     536.31689
       9.76563	     357.13556	     358.69498	     357.13556	     358.69498
       9.80469	     491.57907	     491.45126	     491.57907	     491.45126
       9.84375	     382.87897	     390.03702	     382.87897	     390.03702
       9.88281	     243.37370	     240.38266	     243.37370	     240.38266

Monitor Diode	  40958.10

"Cumulant 1.Order"
FluctuationFreq. [1/ms]	 8.8345E-002
DiffCoefficient [µm²/s]	 1.8849E+000
Hydrodyn. Radius [nm]	 1.2930E+002

"Cumulant 2.Order"
FluctuationFreq. [1/ms]	 8.6208E-002
DiffCoefficient [µm²/s]	 1.8393E+000
Hydrodyn. Radius [nm]	 1.3251E+002
Expansion Parameter µ2	-5.9619E-004

"Cumulant 3.Order"
FluctuationFreq. [1/ms]	 8.7070E-002
DiffCoefficient [µm²/s]	 1.8577E+000
Hydrodyn. Radius [nm]	 1.3119E+002
Expansion Parameter µ2	 2.2745E-005
Expansion Parameter µ3	 1.3290E-004

"StandardDeviation"
  2.50000E-005	  3.86344E-002
  5.00000E-005	  3.86345E-002
  7.50000E-005	  3.86347E-002
  1.00000E-004	  3.86348E-002
  1.25000E-004	  3.86348E-002
  1.50000E-004	  3.86350E-002
  1.75000E-004	  3.86351E-002
  2.00000E-004	  3.86353E-002
  2.25000E-004	  3.86345E-002
  2.50000E-004	  3.86346E-002
  2.75000E-004	  3.86348E-002
  3.00000E-004	  3.86347E-002
  3.25000E-004	  3.86337E-002
  3.50000E-004	  3.86338E-002
  3.75000E-004	  3.86335E-002
  4.00000E-004	  3.80556E-002
  4.50000E-004	  3.80560E-002
  5.00000E-004	  3.80554E-002
  5.50000E-004	  3.80554E-002
  6.00000E-004	  3.80561E-002
  6.50000E-004	  3.80555E-002
  7.00000E-004	  3.80558E-002
  7.50000E-004	  3.80557E-002
  8.00000E-004	  3.77624E-002
  9.00000E-004	  3.77631E-002
  1.00000E-003	  3.77634E-002
  1.10000E-003	  3.77643E-002
  1.20000E-003	  3.77631E-002
  1.30000E-003	  3.77633E-002
  1.40000E-003	  3.77633E-002
  1.50000E-003	  3.77624E-002
  1.60000E-003	  3.76162E-002
  1.80000E-003	  3.76158E-002
  2.00000E-003	  3.76160E-002
  2.20000E-003	  3.76157E-002
  2.40000E-003	  3.76162E-002
  2.60000E-003	  3.76159E-002
  2.80000E-003	  3.76169E-002
  3.00000E-003	  3.76161E-002
  3.20000E-003	  3.75427E-002
  3.60000E-003	  3.75422E-002
  4.00000E-003	  3.75418E-002
  4.40000E-003	  3.75416E-002
  4.80000E-003	  3.75416E-002
  5.20000E-003	  3.75413E-002
  5.60000E-003	  3.75415E-002
  6.00000E-003	  3.75414E-002
  6.40000E-003	  3.75048E-002
  7.20000E-003	  3.75034E-002
  8.00000E-003	  3.75038E-002
  8.80000E-003	  3.75040E-002
  9.60000E-003	  3.75043E-002
  1.04000E-002	  3.75043E-002
  1.12000E-002	  3.75041E-002
  1.20000E-002	  3.75037E-002
  1.28000E-002	  3.74847E-002
  1.44000E-002	  3.74838E-002
  1.60000E-002	  3.74838E-002
  1.76000E-002	  3.74838E-002
  1.92000E-002	  3.74841E-002
  2.08000E-002	  3.74844E-002
  2.24000E-002	  3.74839E-002
  2.40000E-002	  3.74841E-002
  2.56000E-002	  3.74736E-002
  2.88000E-002	  3.74701E-002
  3.20000E-002	  3.74703E-002
  3.52000E-002	  3.74704E-002
  3.84000E-002	  3.74706E-002
  4.16000E-002	  3.74710E-002
  4.48000E-002	  3.74709E-002
  4.80000E-002	  3.74709E-002
  5.12000E-002	  3.74644E-002
  5.76000E-002	  3.74575E-002
  6.40000E-002	  3.74577E-002
  7.04000E-002	  3.74576E-002
  7.68000E-002	  3.74582E-002
  8.32000E-002	  3.74579E-002
  8.96000E-002	  3.74580E-002
  9.60000E-002	  3.74576E-002
  1.02400E-001	  3.74508E-002
  1.15200E-001	  3.74372E-002
  1.28000E-001	  3.74369E-002
  1.40800E-001	  3.74365E-002
  1.53600E-001	  3.74360E-002
  1.66400E-001	  3.74351E-002
  1.79200E-001	  3.74343E-002
  1.92000E-001	  3.74331E-002
  2.04800E-001	  3.74189E-002
  2.30400E-001	  3.73909E-002
  2.56000E-001	  3.73898E-002
  2.81600E-001	  3.73881E-002
  3.07200E-001	  3.73851E-002
  3.32800E-001	  3.73825E-002
  3.58400E-001	  3.73790E-002
  3.84000E-001	  3.73744E-002
  4.09600E-001	  3.73479E-002
  4.60800E-001	  3.72850E-002
  5.12000E-001	  3.72794E-002
  5.63200E-001	  3.72711E-002
  6.14400E-001	  3.72604E-002
  6.65600E-001	  3.72501E-002
  7.16800E-001	  3.72376E-002
  7.68000E-001	  3.72241E-002
  8.19200E-001	  3.71799E-002
  9.21600E-001	  3.70667E-002
  1.02400E+000	  3.70306E-002
  1.12640E+000	  3.69861E-002
  1.22880E+000	  3.69310E-002
  1.33120E+000	  3.68815E-002
  1.43360E+000	  3.68306E-002
  1.53600E+000	  3.67716E-002
  1.63840E+000	  3.66797E-002
  1.84320E+000	  3.64163E-002
  2.04800E+000	  3.62436E-002
  2.25280E+000	  3.61006E-002
  2.45760E+000	  3.59116E-002
  2.66240E+000	  3.57417E-002
  2.86720E+000	  3.55453E-002
  3.07200E+000	  3.53646E-002
  3.27680E+000	  3.51849E-002
  3.68640E+000	  3.46299E-002
  4.09600E+000	  3.41996E-002
  4.50560E+000	  3.37597E-002
  4.91520E+000	  3.33389E-002
  5.32480E+000	  3.28419E-002
  5.73440E+000	  3.23662E-002
  6.14400E+000	  3.18786E-002
  6.55360E+000	  3.14195E-002
  7.37280E+000	  3.04482E-002
  8.19200E+000	  2.96144E-002
  9.01120E+000	  2.88013E-002
  9.83040E+000	  2.80025E-002
  1.06496E+001	  2.72968E-002
  1.14688E+001	  2.66314E-002
  1.22880E+001	  2.61080E-002
  1.31072E+001	  2.55848E-002
  1.47456E+001	  2.48774E-002
  1.63840E+001	  2.44569E-002
  1.80224E+001	  2.39938E-002
  1.96608E+001	  2.34482E-002
  2.12992E+001	  2.27622E-002
  2.29376E+001	  2.21521E-002
  2.45760E+001	  2.17019E-002
  2.62144E+001	  2.09254E-002
  2.94912E+001	  1.89567E-002
  3.27680E+001	  1.89567E-002
  3.60448E+001	  1.89567E-002
  3.93216E+001	  1.89567E-002
  4.25984E+001	  1.89567E-002
  4.58752E+001	  1.89567E-002
  4.91520E+001	  1.89567E-002
  5.24288E+001	  1.86039E-002
  5.89824E+001	  1.86039E-002
  6.55360E+001	  1.86039E-002
  7.20896E+001	  1.86039E-002
  7.86432E+001	  1.86039E-002
  8.51968E+001	  1.86039E-002
  9.17504E+001	  1.86039E-002
  9.83040E+001	  1.86039E-002
  1.04858E+002	  1.70276E-002
  1.17965E+002	  1.70276E-002
  1.31072E+002	  1.70276E-002
  1.44179E+002	  1.70276E-002
  1.57286E+002	  1.70276E-002
  1.70394E+002	  1.70276E-002
  1.83501E+002	  1.70276E-002
  1.96608E+002	  1.70276E-002
  2.09715E+002	  1.45342E-002
  2.35930E+002	  1.45342E-002
  2.62144E+002	  1.45342E-002
  2.88358E+002	  1.45342E-002
  3.14573E+002	  1.45342E-002
  3.40787E+002	  1.45342E-002
  3.67002E+002	  1.45342E-002
  3.93216E+002	  1.45342E-002
  4.19430E+002	  1.20448E-002
  4.71859E+002	  1.20448E-002
  5.24288E+002	  1.20448E-002
  5.76717E+002	  1.20448E-002
  6.29146E+002	  1.20448E-002
  6.81574E+002	  1.20448E-002
  7.34003E+002	  1.20448E-002
  7.86432E+002	  1.20448E-002
  8.38861E+002	  9.35290E-003
  9.43718E+002	  9.35290E-003
  1.04858E+003	  9.35290E-003
  1.15343E+003	  9.35290E-003
  1.25829E+003	  9.35290E-003
  1.36315E+003	  9.35290E-003
  1.46801E+003	  9.35290E-003
  1.57286E+003	  9.35290E-003
  1.67772E+003	  6.94203E-003
  1.88744E+003	  6.94203E-003
  2.09715E+003	  6.94203E-003
  2.30687E+003	  6.94203E-003
  2.51658E+003	  6.94203E-003
  2.72630E+003	  6.94203E-003
  2.93601E+003	  6.94203E-003
  3.14573E+003	  6.94203E-003
